# E (eV)   ldos(E)   pdos(E)   
 -32.615  0.947E-07  0.947E-07
 -32.600  0.185E-06  0.185E-06
 -32.585  0.351E-06  0.351E-06
 -32.570  0.651E-06  0.651E-06
 -32.555  0.118E-05  0.118E-05
 -32.540  0.209E-05  0.209E-05
 -32.525  0.360E-05  0.360E-05
 -32.510  0.607E-05  0.607E-05
 -32.495  0.997E-05  0.997E-05
 -32.480  0.160E-04  0.160E-04
 -32.465  0.251E-04  0.251E-04
 -32.450  0.383E-04  0.383E-04
 -32.435  0.572E-04  0.572E-04
 -32.420  0.832E-04  0.832E-04
 -32.405  0.118E-03  0.118E-03
 -32.390  0.164E-03  0.164E-03
 -32.375  0.222E-03  0.222E-03
 -32.360  0.294E-03  0.294E-03
 -32.345  0.379E-03  0.379E-03
 -32.330  0.477E-03  0.477E-03
 -32.315  0.586E-03  0.586E-03
 -32.300  0.703E-03  0.703E-03
 -32.285  0.823E-03  0.823E-03
 -32.270  0.940E-03  0.940E-03
 -32.255  0.105E-02  0.105E-02
 -32.240  0.114E-02  0.114E-02
 -32.225  0.121E-02  0.121E-02
 -32.210  0.126E-02  0.126E-02
 -32.195  0.127E-02  0.127E-02
 -32.180  0.126E-02  0.126E-02
 -32.165  0.121E-02  0.121E-02
 -32.150  0.114E-02  0.114E-02
 -32.135  0.105E-02  0.105E-02
 -32.120  0.938E-03  0.938E-03
 -32.105  0.821E-03  0.821E-03
 -32.090  0.701E-03  0.701E-03
 -32.075  0.584E-03  0.584E-03
 -32.060  0.475E-03  0.475E-03
 -32.045  0.377E-03  0.377E-03
 -32.030  0.292E-03  0.292E-03
 -32.015  0.221E-03  0.221E-03
 -32.000  0.163E-03  0.163E-03
 -31.985  0.118E-03  0.118E-03
 -31.970  0.826E-04  0.826E-04
 -31.955  0.567E-04  0.567E-04
 -31.940  0.380E-04  0.380E-04
 -31.925  0.248E-04  0.248E-04
 -31.910  0.159E-04  0.159E-04
 -31.895  0.987E-05  0.987E-05
 -31.880  0.600E-05  0.600E-05
 -31.865  0.356E-05  0.356E-05
 -31.850  0.206E-05  0.206E-05
 -31.835  0.117E-05  0.117E-05
 -31.820  0.643E-06  0.643E-06
 -31.805  0.346E-06  0.346E-06
 -31.790  0.182E-06  0.182E-06
 -31.775  0.933E-07  0.933E-07
 -31.760  0.467E-07  0.467E-07
 -31.745  0.228E-07  0.228E-07
 -31.730  0.109E-07  0.109E-07
 -31.715  0.507E-08  0.507E-08
 -31.700  0.230E-08  0.230E-08
 -31.685  0.102E-08  0.102E-08
 -31.670  0.442E-09  0.442E-09
 -31.655  0.186E-09  0.186E-09
 -31.640  0.769E-10  0.769E-10
 -31.625  0.309E-10  0.309E-10
 -31.610  0.121E-10  0.121E-10
 -31.595  0.466E-11  0.466E-11
 -31.580  0.174E-11  0.174E-11
 -31.565  0.636E-12  0.636E-12
 -31.550  0.227E-12  0.227E-12
 -31.535  0.788E-13  0.788E-13
 -31.520  0.268E-13  0.268E-13
 -31.505  0.856E-14  0.856E-14
 -31.490  0.298E-16  0.298E-16
 -31.475  0.000E+00  0.000E+00
 -31.460  0.000E+00  0.000E+00
 -31.445  0.000E+00  0.000E+00
 -31.430  0.000E+00  0.000E+00
 -31.415  0.000E+00  0.000E+00
 -31.400  0.000E+00  0.000E+00
 -31.385  0.000E+00  0.000E+00
 -31.370  0.000E+00  0.000E+00
 -31.355  0.000E+00  0.000E+00
 -31.340  0.000E+00  0.000E+00
 -31.325  0.000E+00  0.000E+00
 -31.310  0.000E+00  0.000E+00
 -31.295  0.000E+00  0.000E+00
 -31.280  0.000E+00  0.000E+00
 -31.265  0.000E+00  0.000E+00
 -31.250  0.000E+00  0.000E+00
 -31.235  0.000E+00  0.000E+00
 -31.220  0.000E+00  0.000E+00
 -31.205  0.000E+00  0.000E+00
 -31.190  0.000E+00  0.000E+00
 -31.175  0.000E+00  0.000E+00
 -31.160  0.000E+00  0.000E+00
 -31.145  0.000E+00  0.000E+00
 -31.130  0.000E+00  0.000E+00
 -31.115  0.000E+00  0.000E+00
 -31.100  0.000E+00  0.000E+00
 -31.085  0.000E+00  0.000E+00
 -31.070  0.000E+00  0.000E+00
 -31.055  0.000E+00  0.000E+00
 -31.040  0.000E+00  0.000E+00
 -31.025  0.000E+00  0.000E+00
 -31.010  0.000E+00  0.000E+00
 -30.995  0.000E+00  0.000E+00
 -30.980  0.000E+00  0.000E+00
 -30.965  0.000E+00  0.000E+00
 -30.950  0.000E+00  0.000E+00
 -30.935  0.000E+00  0.000E+00
 -30.920  0.000E+00  0.000E+00
 -30.905  0.000E+00  0.000E+00
 -30.890  0.000E+00  0.000E+00
 -30.875  0.000E+00  0.000E+00
 -30.860  0.000E+00  0.000E+00
 -30.845  0.000E+00  0.000E+00
 -30.830  0.000E+00  0.000E+00
 -30.815  0.000E+00  0.000E+00
 -30.800  0.000E+00  0.000E+00
 -30.785  0.000E+00  0.000E+00
 -30.770  0.000E+00  0.000E+00
 -30.755  0.000E+00  0.000E+00
 -30.740  0.000E+00  0.000E+00
 -30.725  0.000E+00  0.000E+00
 -30.710  0.000E+00  0.000E+00
 -30.695  0.000E+00  0.000E+00
 -30.680  0.000E+00  0.000E+00
 -30.665  0.000E+00  0.000E+00
 -30.650  0.000E+00  0.000E+00
 -30.635  0.000E+00  0.000E+00
 -30.620  0.000E+00  0.000E+00
 -30.605  0.000E+00  0.000E+00
 -30.590  0.000E+00  0.000E+00
 -30.575  0.000E+00  0.000E+00
 -30.560  0.000E+00  0.000E+00
 -30.545  0.000E+00  0.000E+00
 -30.530  0.000E+00  0.000E+00
 -30.515  0.000E+00  0.000E+00
 -30.500  0.000E+00  0.000E+00
 -30.485  0.000E+00  0.000E+00
 -30.470  0.000E+00  0.000E+00
 -30.455  0.000E+00  0.000E+00
 -30.440  0.000E+00  0.000E+00
 -30.425  0.000E+00  0.000E+00
 -30.410  0.000E+00  0.000E+00
 -30.395  0.000E+00  0.000E+00
 -30.380  0.000E+00  0.000E+00
 -30.365  0.000E+00  0.000E+00
 -30.350  0.000E+00  0.000E+00
 -30.335  0.000E+00  0.000E+00
 -30.320  0.000E+00  0.000E+00
 -30.305  0.000E+00  0.000E+00
 -30.290  0.000E+00  0.000E+00
 -30.275  0.000E+00  0.000E+00
 -30.260  0.000E+00  0.000E+00
 -30.245  0.000E+00  0.000E+00
 -30.230  0.000E+00  0.000E+00
 -30.215  0.000E+00  0.000E+00
 -30.200  0.000E+00  0.000E+00
 -30.185  0.000E+00  0.000E+00
 -30.170  0.000E+00  0.000E+00
 -30.155  0.000E+00  0.000E+00
 -30.140  0.000E+00  0.000E+00
 -30.125  0.000E+00  0.000E+00
 -30.110  0.000E+00  0.000E+00
 -30.095  0.000E+00  0.000E+00
 -30.080  0.000E+00  0.000E+00
 -30.065  0.000E+00  0.000E+00
 -30.050  0.000E+00  0.000E+00
 -30.035  0.000E+00  0.000E+00
 -30.020  0.000E+00  0.000E+00
 -30.005  0.000E+00  0.000E+00
 -29.990  0.000E+00  0.000E+00
 -29.975  0.000E+00  0.000E+00
 -29.960  0.000E+00  0.000E+00
 -29.945  0.000E+00  0.000E+00
 -29.930  0.000E+00  0.000E+00
 -29.915  0.000E+00  0.000E+00
 -29.900  0.000E+00  0.000E+00
 -29.885  0.000E+00  0.000E+00
 -29.870  0.000E+00  0.000E+00
 -29.855  0.000E+00  0.000E+00
 -29.840  0.000E+00  0.000E+00
 -29.825  0.000E+00  0.000E+00
 -29.810  0.000E+00  0.000E+00
 -29.795  0.000E+00  0.000E+00
 -29.780  0.000E+00  0.000E+00
 -29.765  0.000E+00  0.000E+00
 -29.750  0.000E+00  0.000E+00
 -29.735  0.000E+00  0.000E+00
 -29.720  0.000E+00  0.000E+00
 -29.705  0.000E+00  0.000E+00
 -29.690  0.000E+00  0.000E+00
 -29.675  0.000E+00  0.000E+00
 -29.660  0.000E+00  0.000E+00
 -29.645  0.000E+00  0.000E+00
 -29.630  0.000E+00  0.000E+00
 -29.615  0.000E+00  0.000E+00
 -29.600  0.000E+00  0.000E+00
 -29.585  0.000E+00  0.000E+00
 -29.570  0.000E+00  0.000E+00
 -29.555  0.000E+00  0.000E+00
 -29.540  0.000E+00  0.000E+00
 -29.525  0.000E+00  0.000E+00
 -29.510  0.000E+00  0.000E+00
 -29.495  0.000E+00  0.000E+00
 -29.480  0.000E+00  0.000E+00
 -29.465  0.000E+00  0.000E+00
 -29.450  0.000E+00  0.000E+00
 -29.435  0.000E+00  0.000E+00
 -29.420  0.000E+00  0.000E+00
 -29.405  0.000E+00  0.000E+00
 -29.390  0.000E+00  0.000E+00
 -29.375  0.000E+00  0.000E+00
 -29.360  0.000E+00  0.000E+00
 -29.345  0.000E+00  0.000E+00
 -29.330  0.000E+00  0.000E+00
 -29.315  0.000E+00  0.000E+00
 -29.300  0.000E+00  0.000E+00
 -29.285  0.000E+00  0.000E+00
 -29.270  0.000E+00  0.000E+00
 -29.255  0.000E+00  0.000E+00
 -29.240  0.000E+00  0.000E+00
 -29.225  0.000E+00  0.000E+00
 -29.210  0.000E+00  0.000E+00
 -29.195  0.000E+00  0.000E+00
 -29.180  0.000E+00  0.000E+00
 -29.165  0.000E+00  0.000E+00
 -29.150  0.000E+00  0.000E+00
 -29.135  0.000E+00  0.000E+00
 -29.120  0.000E+00  0.000E+00
 -29.105  0.000E+00  0.000E+00
 -29.090  0.000E+00  0.000E+00
 -29.075  0.000E+00  0.000E+00
 -29.060  0.000E+00  0.000E+00
 -29.045  0.000E+00  0.000E+00
 -29.030  0.000E+00  0.000E+00
 -29.015  0.000E+00  0.000E+00
 -29.000  0.000E+00  0.000E+00
 -28.985  0.000E+00  0.000E+00
 -28.970  0.000E+00  0.000E+00
 -28.955  0.000E+00  0.000E+00
 -28.940  0.000E+00  0.000E+00
 -28.925  0.000E+00  0.000E+00
 -28.910  0.000E+00  0.000E+00
 -28.895  0.000E+00  0.000E+00
 -28.880  0.000E+00  0.000E+00
 -28.865  0.000E+00  0.000E+00
 -28.850  0.000E+00  0.000E+00
 -28.835  0.000E+00  0.000E+00
 -28.820  0.000E+00  0.000E+00
 -28.805  0.000E+00  0.000E+00
 -28.790  0.000E+00  0.000E+00
 -28.775  0.000E+00  0.000E+00
 -28.760  0.000E+00  0.000E+00
 -28.745  0.000E+00  0.000E+00
 -28.730  0.000E+00  0.000E+00
 -28.715  0.000E+00  0.000E+00
 -28.700  0.000E+00  0.000E+00
 -28.685  0.000E+00  0.000E+00
 -28.670  0.000E+00  0.000E+00
 -28.655  0.000E+00  0.000E+00
 -28.640  0.000E+00  0.000E+00
 -28.625  0.000E+00  0.000E+00
 -28.610  0.000E+00  0.000E+00
 -28.595  0.000E+00  0.000E+00
 -28.580  0.000E+00  0.000E+00
 -28.565  0.000E+00  0.000E+00
 -28.550  0.000E+00  0.000E+00
 -28.535  0.000E+00  0.000E+00
 -28.520  0.000E+00  0.000E+00
 -28.505  0.000E+00  0.000E+00
 -28.490  0.000E+00  0.000E+00
 -28.475  0.000E+00  0.000E+00
 -28.460  0.000E+00  0.000E+00
 -28.445  0.000E+00  0.000E+00
 -28.430  0.000E+00  0.000E+00
 -28.415  0.000E+00  0.000E+00
 -28.400  0.000E+00  0.000E+00
 -28.385  0.000E+00  0.000E+00
 -28.370  0.000E+00  0.000E+00
 -28.355  0.000E+00  0.000E+00
 -28.340  0.000E+00  0.000E+00
 -28.325  0.000E+00  0.000E+00
 -28.310  0.000E+00  0.000E+00
 -28.295  0.000E+00  0.000E+00
 -28.280  0.000E+00  0.000E+00
 -28.265  0.000E+00  0.000E+00
 -28.250  0.000E+00  0.000E+00
 -28.235  0.000E+00  0.000E+00
 -28.220  0.000E+00  0.000E+00
 -28.205  0.000E+00  0.000E+00
 -28.190  0.000E+00  0.000E+00
 -28.175  0.000E+00  0.000E+00
 -28.160  0.000E+00  0.000E+00
 -28.145  0.000E+00  0.000E+00
 -28.130  0.000E+00  0.000E+00
 -28.115  0.000E+00  0.000E+00
 -28.100  0.000E+00  0.000E+00
 -28.085  0.000E+00  0.000E+00
 -28.070  0.000E+00  0.000E+00
 -28.055  0.000E+00  0.000E+00
 -28.040  0.000E+00  0.000E+00
 -28.025  0.000E+00  0.000E+00
 -28.010  0.000E+00  0.000E+00
 -27.995  0.000E+00  0.000E+00
 -27.980  0.000E+00  0.000E+00
 -27.965  0.000E+00  0.000E+00
 -27.950  0.000E+00  0.000E+00
 -27.935  0.000E+00  0.000E+00
 -27.920  0.000E+00  0.000E+00
 -27.905  0.000E+00  0.000E+00
 -27.890  0.000E+00  0.000E+00
 -27.875  0.000E+00  0.000E+00
 -27.860  0.000E+00  0.000E+00
 -27.845  0.000E+00  0.000E+00
 -27.830  0.000E+00  0.000E+00
 -27.815  0.000E+00  0.000E+00
 -27.800  0.000E+00  0.000E+00
 -27.785  0.000E+00  0.000E+00
 -27.770  0.000E+00  0.000E+00
 -27.755  0.000E+00  0.000E+00
 -27.740  0.000E+00  0.000E+00
 -27.725  0.000E+00  0.000E+00
 -27.710  0.000E+00  0.000E+00
 -27.695  0.000E+00  0.000E+00
 -27.680  0.000E+00  0.000E+00
 -27.665  0.000E+00  0.000E+00
 -27.650  0.000E+00  0.000E+00
 -27.635  0.000E+00  0.000E+00
 -27.620  0.000E+00  0.000E+00
 -27.605  0.000E+00  0.000E+00
 -27.590  0.000E+00  0.000E+00
 -27.575  0.000E+00  0.000E+00
 -27.560  0.000E+00  0.000E+00
 -27.545  0.000E+00  0.000E+00
 -27.530  0.000E+00  0.000E+00
 -27.515  0.000E+00  0.000E+00
 -27.500  0.000E+00  0.000E+00
 -27.485  0.000E+00  0.000E+00
 -27.470  0.000E+00  0.000E+00
 -27.455  0.000E+00  0.000E+00
 -27.440  0.000E+00  0.000E+00
 -27.425  0.000E+00  0.000E+00
 -27.410  0.000E+00  0.000E+00
 -27.395  0.000E+00  0.000E+00
 -27.380  0.000E+00  0.000E+00
 -27.365  0.000E+00  0.000E+00
 -27.350  0.000E+00  0.000E+00
 -27.335  0.000E+00  0.000E+00
 -27.320  0.000E+00  0.000E+00
 -27.305  0.000E+00  0.000E+00
 -27.290  0.000E+00  0.000E+00
 -27.275  0.000E+00  0.000E+00
 -27.260  0.000E+00  0.000E+00
 -27.245  0.000E+00  0.000E+00
 -27.230  0.000E+00  0.000E+00
 -27.215  0.000E+00  0.000E+00
 -27.200  0.000E+00  0.000E+00
 -27.185  0.000E+00  0.000E+00
 -27.170  0.000E+00  0.000E+00
 -27.155  0.000E+00  0.000E+00
 -27.140  0.000E+00  0.000E+00
 -27.125  0.000E+00  0.000E+00
 -27.110  0.000E+00  0.000E+00
 -27.095  0.000E+00  0.000E+00
 -27.080  0.000E+00  0.000E+00
 -27.065  0.000E+00  0.000E+00
 -27.050  0.000E+00  0.000E+00
 -27.035  0.000E+00  0.000E+00
 -27.020  0.000E+00  0.000E+00
 -27.005  0.000E+00  0.000E+00
 -26.990  0.000E+00  0.000E+00
 -26.975  0.000E+00  0.000E+00
 -26.960  0.000E+00  0.000E+00
 -26.945  0.000E+00  0.000E+00
 -26.930  0.000E+00  0.000E+00
 -26.915  0.000E+00  0.000E+00
 -26.900  0.000E+00  0.000E+00
 -26.885  0.000E+00  0.000E+00
 -26.870  0.000E+00  0.000E+00
 -26.855  0.000E+00  0.000E+00
 -26.840  0.000E+00  0.000E+00
 -26.825  0.000E+00  0.000E+00
 -26.810  0.000E+00  0.000E+00
 -26.795  0.000E+00  0.000E+00
 -26.780  0.000E+00  0.000E+00
 -26.765  0.000E+00  0.000E+00
 -26.750  0.000E+00  0.000E+00
 -26.735  0.000E+00  0.000E+00
 -26.720  0.000E+00  0.000E+00
 -26.705  0.000E+00  0.000E+00
 -26.690  0.000E+00  0.000E+00
 -26.675  0.000E+00  0.000E+00
 -26.660  0.000E+00  0.000E+00
 -26.645  0.000E+00  0.000E+00
 -26.630  0.000E+00  0.000E+00
 -26.615  0.000E+00  0.000E+00
 -26.600  0.000E+00  0.000E+00
 -26.585  0.000E+00  0.000E+00
 -26.570  0.000E+00  0.000E+00
 -26.555  0.000E+00  0.000E+00
 -26.540  0.000E+00  0.000E+00
 -26.525  0.000E+00  0.000E+00
 -26.510  0.000E+00  0.000E+00
 -26.495  0.000E+00  0.000E+00
 -26.480  0.000E+00  0.000E+00
 -26.465  0.000E+00  0.000E+00
 -26.450  0.000E+00  0.000E+00
 -26.435  0.000E+00  0.000E+00
 -26.420  0.000E+00  0.000E+00
 -26.405  0.000E+00  0.000E+00
 -26.390  0.000E+00  0.000E+00
 -26.375  0.000E+00  0.000E+00
 -26.360  0.000E+00  0.000E+00
 -26.345  0.000E+00  0.000E+00
 -26.330  0.000E+00  0.000E+00
 -26.315  0.000E+00  0.000E+00
 -26.300  0.000E+00  0.000E+00
 -26.285  0.000E+00  0.000E+00
 -26.270  0.000E+00  0.000E+00
 -26.255  0.000E+00  0.000E+00
 -26.240  0.000E+00  0.000E+00
 -26.225  0.000E+00  0.000E+00
 -26.210  0.000E+00  0.000E+00
 -26.195  0.000E+00  0.000E+00
 -26.180  0.000E+00  0.000E+00
 -26.165  0.000E+00  0.000E+00
 -26.150  0.000E+00  0.000E+00
 -26.135  0.000E+00  0.000E+00
 -26.120  0.000E+00  0.000E+00
 -26.105  0.000E+00  0.000E+00
 -26.090  0.000E+00  0.000E+00
 -26.075  0.000E+00  0.000E+00
 -26.060  0.000E+00  0.000E+00
 -26.045  0.000E+00  0.000E+00
 -26.030  0.000E+00  0.000E+00
 -26.015  0.000E+00  0.000E+00
 -26.000  0.000E+00  0.000E+00
 -25.985  0.000E+00  0.000E+00
 -25.970  0.000E+00  0.000E+00
 -25.955  0.000E+00  0.000E+00
 -25.940  0.000E+00  0.000E+00
 -25.925  0.000E+00  0.000E+00
 -25.910  0.000E+00  0.000E+00
 -25.895  0.000E+00  0.000E+00
 -25.880  0.000E+00  0.000E+00
 -25.865  0.000E+00  0.000E+00
 -25.850  0.000E+00  0.000E+00
 -25.835  0.000E+00  0.000E+00
 -25.820  0.000E+00  0.000E+00
 -25.805  0.000E+00  0.000E+00
 -25.790  0.000E+00  0.000E+00
 -25.775  0.000E+00  0.000E+00
 -25.760  0.000E+00  0.000E+00
 -25.745  0.000E+00  0.000E+00
 -25.730  0.000E+00  0.000E+00
 -25.715  0.000E+00  0.000E+00
 -25.700  0.000E+00  0.000E+00
 -25.685  0.000E+00  0.000E+00
 -25.670  0.000E+00  0.000E+00
 -25.655  0.000E+00  0.000E+00
 -25.640  0.000E+00  0.000E+00
 -25.625  0.000E+00  0.000E+00
 -25.610  0.000E+00  0.000E+00
 -25.595  0.000E+00  0.000E+00
 -25.580  0.000E+00  0.000E+00
 -25.565  0.000E+00  0.000E+00
 -25.550  0.000E+00  0.000E+00
 -25.535  0.000E+00  0.000E+00
 -25.520  0.000E+00  0.000E+00
 -25.505  0.000E+00  0.000E+00
 -25.490  0.000E+00  0.000E+00
 -25.475  0.000E+00  0.000E+00
 -25.460  0.000E+00  0.000E+00
 -25.445  0.000E+00  0.000E+00
 -25.430  0.000E+00  0.000E+00
 -25.415  0.000E+00  0.000E+00
 -25.400  0.000E+00  0.000E+00
 -25.385  0.000E+00  0.000E+00
 -25.370  0.000E+00  0.000E+00
 -25.355  0.000E+00  0.000E+00
 -25.340  0.000E+00  0.000E+00
 -25.325  0.000E+00  0.000E+00
 -25.310  0.000E+00  0.000E+00
 -25.295  0.000E+00  0.000E+00
 -25.280  0.000E+00  0.000E+00
 -25.265  0.000E+00  0.000E+00
 -25.250  0.000E+00  0.000E+00
 -25.235  0.000E+00  0.000E+00
 -25.220  0.000E+00  0.000E+00
 -25.205  0.000E+00  0.000E+00
 -25.190  0.000E+00  0.000E+00
 -25.175  0.000E+00  0.000E+00
 -25.160  0.000E+00  0.000E+00
 -25.145  0.000E+00  0.000E+00
 -25.130  0.000E+00  0.000E+00
 -25.115  0.000E+00  0.000E+00
 -25.100  0.000E+00  0.000E+00
 -25.085  0.000E+00  0.000E+00
 -25.070  0.000E+00  0.000E+00
 -25.055  0.000E+00  0.000E+00
 -25.040  0.000E+00  0.000E+00
 -25.025  0.000E+00  0.000E+00
 -25.010  0.000E+00  0.000E+00
 -24.995  0.000E+00  0.000E+00
 -24.980  0.000E+00  0.000E+00
 -24.965  0.000E+00  0.000E+00
 -24.950  0.000E+00  0.000E+00
 -24.935  0.000E+00  0.000E+00
 -24.920  0.000E+00  0.000E+00
 -24.905  0.000E+00  0.000E+00
 -24.890  0.000E+00  0.000E+00
 -24.875  0.000E+00  0.000E+00
 -24.860  0.000E+00  0.000E+00
 -24.845  0.000E+00  0.000E+00
 -24.830  0.000E+00  0.000E+00
 -24.815  0.000E+00  0.000E+00
 -24.800  0.000E+00  0.000E+00
 -24.785  0.000E+00  0.000E+00
 -24.770  0.000E+00  0.000E+00
 -24.755  0.000E+00  0.000E+00
 -24.740  0.000E+00  0.000E+00
 -24.725  0.000E+00  0.000E+00
 -24.710  0.000E+00  0.000E+00
 -24.695  0.000E+00  0.000E+00
 -24.680  0.000E+00  0.000E+00
 -24.665  0.000E+00  0.000E+00
 -24.650  0.000E+00  0.000E+00
 -24.635  0.000E+00  0.000E+00
 -24.620  0.000E+00  0.000E+00
 -24.605  0.000E+00  0.000E+00
 -24.590  0.000E+00  0.000E+00
 -24.575  0.000E+00  0.000E+00
 -24.560  0.000E+00  0.000E+00
 -24.545  0.000E+00  0.000E+00
 -24.530  0.000E+00  0.000E+00
 -24.515  0.000E+00  0.000E+00
 -24.500  0.000E+00  0.000E+00
 -24.485  0.000E+00  0.000E+00
 -24.470  0.000E+00  0.000E+00
 -24.455  0.000E+00  0.000E+00
 -24.440  0.000E+00  0.000E+00
 -24.425  0.000E+00  0.000E+00
 -24.410  0.000E+00  0.000E+00
 -24.395  0.000E+00  0.000E+00
 -24.380  0.000E+00  0.000E+00
 -24.365  0.000E+00  0.000E+00
 -24.350  0.000E+00  0.000E+00
 -24.335  0.000E+00  0.000E+00
 -24.320  0.000E+00  0.000E+00
 -24.305  0.000E+00  0.000E+00
 -24.290  0.000E+00  0.000E+00
 -24.275  0.000E+00  0.000E+00
 -24.260  0.000E+00  0.000E+00
 -24.245  0.000E+00  0.000E+00
 -24.230  0.000E+00  0.000E+00
 -24.215  0.000E+00  0.000E+00
 -24.200  0.000E+00  0.000E+00
 -24.185  0.000E+00  0.000E+00
 -24.170  0.000E+00  0.000E+00
 -24.155  0.000E+00  0.000E+00
 -24.140  0.000E+00  0.000E+00
 -24.125  0.000E+00  0.000E+00
 -24.110  0.000E+00  0.000E+00
 -24.095  0.000E+00  0.000E+00
 -24.080  0.000E+00  0.000E+00
 -24.065  0.000E+00  0.000E+00
 -24.050  0.000E+00  0.000E+00
 -24.035  0.000E+00  0.000E+00
 -24.020  0.000E+00  0.000E+00
 -24.005  0.000E+00  0.000E+00
 -23.990  0.000E+00  0.000E+00
 -23.975  0.000E+00  0.000E+00
 -23.960  0.000E+00  0.000E+00
 -23.945  0.000E+00  0.000E+00
 -23.930  0.000E+00  0.000E+00
 -23.915  0.000E+00  0.000E+00
 -23.900  0.000E+00  0.000E+00
 -23.885  0.000E+00  0.000E+00
 -23.870  0.000E+00  0.000E+00
 -23.855  0.000E+00  0.000E+00
 -23.840  0.000E+00  0.000E+00
 -23.825  0.000E+00  0.000E+00
 -23.810  0.000E+00  0.000E+00
 -23.795  0.000E+00  0.000E+00
 -23.780  0.000E+00  0.000E+00
 -23.765  0.000E+00  0.000E+00
 -23.750  0.000E+00  0.000E+00
 -23.735  0.000E+00  0.000E+00
 -23.720  0.000E+00  0.000E+00
 -23.705  0.000E+00  0.000E+00
 -23.690  0.000E+00  0.000E+00
 -23.675  0.000E+00  0.000E+00
 -23.660  0.000E+00  0.000E+00
 -23.645  0.000E+00  0.000E+00
 -23.630  0.000E+00  0.000E+00
 -23.615  0.000E+00  0.000E+00
 -23.600  0.000E+00  0.000E+00
 -23.585  0.000E+00  0.000E+00
 -23.570  0.000E+00  0.000E+00
 -23.555  0.000E+00  0.000E+00
 -23.540  0.000E+00  0.000E+00
 -23.525  0.000E+00  0.000E+00
 -23.510  0.000E+00  0.000E+00
 -23.495  0.000E+00  0.000E+00
 -23.480  0.000E+00  0.000E+00
 -23.465  0.000E+00  0.000E+00
 -23.450  0.000E+00  0.000E+00
 -23.435  0.000E+00  0.000E+00
 -23.420  0.000E+00  0.000E+00
 -23.405  0.000E+00  0.000E+00
 -23.390  0.000E+00  0.000E+00
 -23.375  0.000E+00  0.000E+00
 -23.360  0.000E+00  0.000E+00
 -23.345  0.000E+00  0.000E+00
 -23.330  0.000E+00  0.000E+00
 -23.315  0.000E+00  0.000E+00
 -23.300  0.000E+00  0.000E+00
 -23.285  0.000E+00  0.000E+00
 -23.270  0.000E+00  0.000E+00
 -23.255  0.000E+00  0.000E+00
 -23.240  0.000E+00  0.000E+00
 -23.225  0.000E+00  0.000E+00
 -23.210  0.000E+00  0.000E+00
 -23.195  0.000E+00  0.000E+00
 -23.180  0.000E+00  0.000E+00
 -23.165  0.000E+00  0.000E+00
 -23.150  0.000E+00  0.000E+00
 -23.135  0.000E+00  0.000E+00
 -23.120  0.000E+00  0.000E+00
 -23.105  0.000E+00  0.000E+00
 -23.090  0.000E+00  0.000E+00
 -23.075  0.000E+00  0.000E+00
 -23.060  0.000E+00  0.000E+00
 -23.045  0.000E+00  0.000E+00
 -23.030  0.000E+00  0.000E+00
 -23.015  0.000E+00  0.000E+00
 -23.000  0.000E+00  0.000E+00
 -22.985  0.000E+00  0.000E+00
 -22.970  0.000E+00  0.000E+00
 -22.955  0.000E+00  0.000E+00
 -22.940  0.000E+00  0.000E+00
 -22.925  0.000E+00  0.000E+00
 -22.910  0.000E+00  0.000E+00
 -22.895  0.000E+00  0.000E+00
 -22.880  0.000E+00  0.000E+00
 -22.865  0.000E+00  0.000E+00
 -22.850  0.000E+00  0.000E+00
 -22.835  0.000E+00  0.000E+00
 -22.820  0.000E+00  0.000E+00
 -22.805  0.000E+00  0.000E+00
 -22.790  0.000E+00  0.000E+00
 -22.775  0.000E+00  0.000E+00
 -22.760  0.000E+00  0.000E+00
 -22.745  0.000E+00  0.000E+00
 -22.730  0.000E+00  0.000E+00
 -22.715  0.000E+00  0.000E+00
 -22.700  0.000E+00  0.000E+00
 -22.685  0.000E+00  0.000E+00
 -22.670  0.000E+00  0.000E+00
 -22.655  0.000E+00  0.000E+00
 -22.640  0.000E+00  0.000E+00
 -22.625  0.000E+00  0.000E+00
 -22.610  0.000E+00  0.000E+00
 -22.595  0.000E+00  0.000E+00
 -22.580  0.000E+00  0.000E+00
 -22.565  0.000E+00  0.000E+00
 -22.550  0.000E+00  0.000E+00
 -22.535  0.000E+00  0.000E+00
 -22.520  0.000E+00  0.000E+00
 -22.505  0.000E+00  0.000E+00
 -22.490  0.000E+00  0.000E+00
 -22.475  0.000E+00  0.000E+00
 -22.460  0.000E+00  0.000E+00
 -22.445  0.000E+00  0.000E+00
 -22.430  0.000E+00  0.000E+00
 -22.415  0.000E+00  0.000E+00
 -22.400  0.000E+00  0.000E+00
 -22.385  0.000E+00  0.000E+00
 -22.370  0.000E+00  0.000E+00
 -22.355  0.000E+00  0.000E+00
 -22.340  0.000E+00  0.000E+00
 -22.325  0.000E+00  0.000E+00
 -22.310  0.000E+00  0.000E+00
 -22.295  0.000E+00  0.000E+00
 -22.280  0.000E+00  0.000E+00
 -22.265  0.000E+00  0.000E+00
 -22.250  0.000E+00  0.000E+00
 -22.235  0.000E+00  0.000E+00
 -22.220  0.000E+00  0.000E+00
 -22.205  0.000E+00  0.000E+00
 -22.190  0.000E+00  0.000E+00
 -22.175  0.000E+00  0.000E+00
 -22.160  0.000E+00  0.000E+00
 -22.145  0.000E+00  0.000E+00
 -22.130  0.000E+00  0.000E+00
 -22.115  0.000E+00  0.000E+00
 -22.100  0.000E+00  0.000E+00
 -22.085  0.000E+00  0.000E+00
 -22.070  0.000E+00  0.000E+00
 -22.055  0.000E+00  0.000E+00
 -22.040  0.000E+00  0.000E+00
 -22.025  0.000E+00  0.000E+00
 -22.010  0.000E+00  0.000E+00
 -21.995  0.000E+00  0.000E+00
 -21.980  0.000E+00  0.000E+00
 -21.965  0.000E+00  0.000E+00
 -21.950  0.000E+00  0.000E+00
 -21.935  0.000E+00  0.000E+00
 -21.920  0.000E+00  0.000E+00
 -21.905  0.000E+00  0.000E+00
 -21.890  0.000E+00  0.000E+00
 -21.875  0.000E+00  0.000E+00
 -21.860  0.000E+00  0.000E+00
 -21.845  0.000E+00  0.000E+00
 -21.830  0.000E+00  0.000E+00
 -21.815  0.000E+00  0.000E+00
 -21.800  0.000E+00  0.000E+00
 -21.785  0.000E+00  0.000E+00
 -21.770  0.000E+00  0.000E+00
 -21.755  0.000E+00  0.000E+00
 -21.740  0.000E+00  0.000E+00
 -21.725  0.000E+00  0.000E+00
 -21.710  0.000E+00  0.000E+00
 -21.695  0.000E+00  0.000E+00
 -21.680  0.000E+00  0.000E+00
 -21.665  0.000E+00  0.000E+00
 -21.650  0.000E+00  0.000E+00
 -21.635  0.000E+00  0.000E+00
 -21.620  0.000E+00  0.000E+00
 -21.605  0.000E+00  0.000E+00
 -21.590  0.000E+00  0.000E+00
 -21.575  0.000E+00  0.000E+00
 -21.560  0.000E+00  0.000E+00
 -21.545  0.000E+00  0.000E+00
 -21.530  0.000E+00  0.000E+00
 -21.515  0.000E+00  0.000E+00
 -21.500  0.000E+00  0.000E+00
 -21.485  0.000E+00  0.000E+00
 -21.470  0.000E+00  0.000E+00
 -21.455  0.000E+00  0.000E+00
 -21.440  0.000E+00  0.000E+00
 -21.425  0.000E+00  0.000E+00
 -21.410  0.000E+00  0.000E+00
 -21.395  0.000E+00  0.000E+00
 -21.380  0.000E+00  0.000E+00
 -21.365  0.000E+00  0.000E+00
 -21.350  0.000E+00  0.000E+00
 -21.335  0.000E+00  0.000E+00
 -21.320  0.000E+00  0.000E+00
 -21.305  0.000E+00  0.000E+00
 -21.290  0.000E+00  0.000E+00
 -21.275  0.000E+00  0.000E+00
 -21.260  0.000E+00  0.000E+00
 -21.245  0.000E+00  0.000E+00
 -21.230  0.000E+00  0.000E+00
 -21.215  0.000E+00  0.000E+00
 -21.200  0.000E+00  0.000E+00
 -21.185  0.000E+00  0.000E+00
 -21.170  0.000E+00  0.000E+00
 -21.155  0.000E+00  0.000E+00
 -21.140  0.000E+00  0.000E+00
 -21.125  0.000E+00  0.000E+00
 -21.110  0.000E+00  0.000E+00
 -21.095  0.000E+00  0.000E+00
 -21.080  0.000E+00  0.000E+00
 -21.065  0.000E+00  0.000E+00
 -21.050  0.000E+00  0.000E+00
 -21.035  0.000E+00  0.000E+00
 -21.020  0.000E+00  0.000E+00
 -21.005  0.000E+00  0.000E+00
 -20.990  0.000E+00  0.000E+00
 -20.975  0.000E+00  0.000E+00
 -20.960  0.000E+00  0.000E+00
 -20.945  0.000E+00  0.000E+00
 -20.930  0.000E+00  0.000E+00
 -20.915  0.000E+00  0.000E+00
 -20.900  0.000E+00  0.000E+00
 -20.885  0.000E+00  0.000E+00
 -20.870  0.000E+00  0.000E+00
 -20.855  0.000E+00  0.000E+00
 -20.840  0.000E+00  0.000E+00
 -20.825  0.000E+00  0.000E+00
 -20.810  0.000E+00  0.000E+00
 -20.795  0.000E+00  0.000E+00
 -20.780  0.000E+00  0.000E+00
 -20.765  0.000E+00  0.000E+00
 -20.750  0.000E+00  0.000E+00
 -20.735  0.000E+00  0.000E+00
 -20.720  0.000E+00  0.000E+00
 -20.705  0.000E+00  0.000E+00
 -20.690  0.000E+00  0.000E+00
 -20.675  0.000E+00  0.000E+00
 -20.660  0.000E+00  0.000E+00
 -20.645  0.000E+00  0.000E+00
 -20.630  0.000E+00  0.000E+00
 -20.615  0.000E+00  0.000E+00
 -20.600  0.000E+00  0.000E+00
 -20.585  0.000E+00  0.000E+00
 -20.570  0.000E+00  0.000E+00
 -20.555  0.000E+00  0.000E+00
 -20.540  0.000E+00  0.000E+00
 -20.525  0.000E+00  0.000E+00
 -20.510  0.000E+00  0.000E+00
 -20.495  0.000E+00  0.000E+00
 -20.480  0.000E+00  0.000E+00
 -20.465  0.000E+00  0.000E+00
 -20.450  0.000E+00  0.000E+00
 -20.435  0.000E+00  0.000E+00
 -20.420  0.000E+00  0.000E+00
 -20.405  0.000E+00  0.000E+00
 -20.390  0.000E+00  0.000E+00
 -20.375  0.000E+00  0.000E+00
 -20.360  0.000E+00  0.000E+00
 -20.345  0.000E+00  0.000E+00
 -20.330  0.000E+00  0.000E+00
 -20.315  0.000E+00  0.000E+00
 -20.300  0.000E+00  0.000E+00
 -20.285  0.000E+00  0.000E+00
 -20.270  0.000E+00  0.000E+00
 -20.255  0.000E+00  0.000E+00
 -20.240  0.000E+00  0.000E+00
 -20.225  0.000E+00  0.000E+00
 -20.210  0.000E+00  0.000E+00
 -20.195  0.000E+00  0.000E+00
 -20.180  0.000E+00  0.000E+00
 -20.165  0.000E+00  0.000E+00
 -20.150  0.000E+00  0.000E+00
 -20.135  0.000E+00  0.000E+00
 -20.120  0.000E+00  0.000E+00
 -20.105  0.000E+00  0.000E+00
 -20.090  0.000E+00  0.000E+00
 -20.075  0.000E+00  0.000E+00
 -20.060  0.000E+00  0.000E+00
 -20.045  0.000E+00  0.000E+00
 -20.030  0.000E+00  0.000E+00
 -20.015  0.000E+00  0.000E+00
 -20.000  0.000E+00  0.000E+00
 -19.985  0.000E+00  0.000E+00
 -19.970  0.000E+00  0.000E+00
 -19.955  0.000E+00  0.000E+00
 -19.940  0.000E+00  0.000E+00
 -19.925  0.000E+00  0.000E+00
 -19.910  0.000E+00  0.000E+00
 -19.895  0.000E+00  0.000E+00
 -19.880  0.000E+00  0.000E+00
 -19.865  0.000E+00  0.000E+00
 -19.850  0.000E+00  0.000E+00
 -19.835  0.000E+00  0.000E+00
 -19.820  0.000E+00  0.000E+00
 -19.805  0.000E+00  0.000E+00
 -19.790  0.000E+00  0.000E+00
 -19.775  0.000E+00  0.000E+00
 -19.760  0.000E+00  0.000E+00
 -19.745  0.000E+00  0.000E+00
 -19.730  0.000E+00  0.000E+00
 -19.715  0.000E+00  0.000E+00
 -19.700  0.000E+00  0.000E+00
 -19.685  0.000E+00  0.000E+00
 -19.670  0.000E+00  0.000E+00
 -19.655  0.000E+00  0.000E+00
 -19.640  0.000E+00  0.000E+00
 -19.625  0.000E+00  0.000E+00
 -19.610  0.000E+00  0.000E+00
 -19.595  0.000E+00  0.000E+00
 -19.580  0.000E+00  0.000E+00
 -19.565  0.000E+00  0.000E+00
 -19.550  0.000E+00  0.000E+00
 -19.535  0.000E+00  0.000E+00
 -19.520  0.000E+00  0.000E+00
 -19.505  0.000E+00  0.000E+00
 -19.490  0.000E+00  0.000E+00
 -19.475  0.000E+00  0.000E+00
 -19.460  0.000E+00  0.000E+00
 -19.445  0.000E+00  0.000E+00
 -19.430  0.000E+00  0.000E+00
 -19.415  0.000E+00  0.000E+00
 -19.400  0.000E+00  0.000E+00
 -19.385  0.000E+00  0.000E+00
 -19.370  0.000E+00  0.000E+00
 -19.355  0.000E+00  0.000E+00
 -19.340  0.000E+00  0.000E+00
 -19.325  0.000E+00  0.000E+00
 -19.310  0.000E+00  0.000E+00
 -19.295  0.000E+00  0.000E+00
 -19.280  0.000E+00  0.000E+00
 -19.265  0.000E+00  0.000E+00
 -19.250  0.000E+00  0.000E+00
 -19.235  0.000E+00  0.000E+00
 -19.220  0.000E+00  0.000E+00
 -19.205  0.000E+00  0.000E+00
 -19.190  0.000E+00  0.000E+00
 -19.175  0.000E+00  0.000E+00
 -19.160  0.000E+00  0.000E+00
 -19.145  0.000E+00  0.000E+00
 -19.130  0.000E+00  0.000E+00
 -19.115  0.000E+00  0.000E+00
 -19.100  0.000E+00  0.000E+00
 -19.085  0.000E+00  0.000E+00
 -19.070  0.000E+00  0.000E+00
 -19.055  0.000E+00  0.000E+00
 -19.040  0.000E+00  0.000E+00
 -19.025  0.000E+00  0.000E+00
 -19.010  0.000E+00  0.000E+00
 -18.995  0.000E+00  0.000E+00
 -18.980  0.000E+00  0.000E+00
 -18.965  0.000E+00  0.000E+00
 -18.950  0.000E+00  0.000E+00
 -18.935  0.000E+00  0.000E+00
 -18.920  0.000E+00  0.000E+00
 -18.905  0.000E+00  0.000E+00
 -18.890  0.000E+00  0.000E+00
 -18.875  0.000E+00  0.000E+00
 -18.860  0.000E+00  0.000E+00
 -18.845  0.000E+00  0.000E+00
 -18.830  0.000E+00  0.000E+00
 -18.815  0.000E+00  0.000E+00
 -18.800  0.000E+00  0.000E+00
 -18.785  0.000E+00  0.000E+00
 -18.770  0.000E+00  0.000E+00
 -18.755  0.000E+00  0.000E+00
 -18.740  0.000E+00  0.000E+00
 -18.725  0.000E+00  0.000E+00
 -18.710  0.000E+00  0.000E+00
 -18.695  0.000E+00  0.000E+00
 -18.680  0.000E+00  0.000E+00
 -18.665  0.000E+00  0.000E+00
 -18.650  0.000E+00  0.000E+00
 -18.635  0.000E+00  0.000E+00
 -18.620  0.000E+00  0.000E+00
 -18.605  0.000E+00  0.000E+00
 -18.590  0.000E+00  0.000E+00
 -18.575  0.000E+00  0.000E+00
 -18.560  0.000E+00  0.000E+00
 -18.545  0.000E+00  0.000E+00
 -18.530  0.000E+00  0.000E+00
 -18.515  0.000E+00  0.000E+00
 -18.500  0.000E+00  0.000E+00
 -18.485  0.000E+00  0.000E+00
 -18.470  0.000E+00  0.000E+00
 -18.455  0.000E+00  0.000E+00
 -18.440  0.000E+00  0.000E+00
 -18.425  0.000E+00  0.000E+00
 -18.410  0.000E+00  0.000E+00
 -18.395  0.000E+00  0.000E+00
 -18.380  0.000E+00  0.000E+00
 -18.365  0.000E+00  0.000E+00
 -18.350  0.000E+00  0.000E+00
 -18.335  0.000E+00  0.000E+00
 -18.320  0.000E+00  0.000E+00
 -18.305  0.000E+00  0.000E+00
 -18.290  0.000E+00  0.000E+00
 -18.275  0.000E+00  0.000E+00
 -18.260  0.000E+00  0.000E+00
 -18.245  0.000E+00  0.000E+00
 -18.230  0.000E+00  0.000E+00
 -18.215  0.000E+00  0.000E+00
 -18.200  0.000E+00  0.000E+00
 -18.185  0.000E+00  0.000E+00
 -18.170  0.000E+00  0.000E+00
 -18.155  0.000E+00  0.000E+00
 -18.140  0.000E+00  0.000E+00
 -18.125  0.000E+00  0.000E+00
 -18.110  0.000E+00  0.000E+00
 -18.095  0.000E+00  0.000E+00
 -18.080  0.000E+00  0.000E+00
 -18.065  0.000E+00  0.000E+00
 -18.050  0.000E+00  0.000E+00
 -18.035  0.000E+00  0.000E+00
 -18.020  0.000E+00  0.000E+00
 -18.005  0.000E+00  0.000E+00
 -17.990  0.000E+00  0.000E+00
 -17.975  0.000E+00  0.000E+00
 -17.960  0.000E+00  0.000E+00
 -17.945  0.000E+00  0.000E+00
 -17.930  0.000E+00  0.000E+00
 -17.915  0.000E+00  0.000E+00
 -17.900  0.000E+00  0.000E+00
 -17.885  0.000E+00  0.000E+00
 -17.870  0.000E+00  0.000E+00
 -17.855  0.000E+00  0.000E+00
 -17.840  0.000E+00  0.000E+00
 -17.825  0.000E+00  0.000E+00
 -17.810  0.000E+00  0.000E+00
 -17.795  0.000E+00  0.000E+00
 -17.780  0.000E+00  0.000E+00
 -17.765  0.000E+00  0.000E+00
 -17.750  0.000E+00  0.000E+00
 -17.735  0.000E+00  0.000E+00
 -17.720  0.000E+00  0.000E+00
 -17.705  0.000E+00  0.000E+00
 -17.690  0.000E+00  0.000E+00
 -17.675  0.000E+00  0.000E+00
 -17.660  0.000E+00  0.000E+00
 -17.645  0.000E+00  0.000E+00
 -17.630  0.000E+00  0.000E+00
 -17.615  0.000E+00  0.000E+00
 -17.600  0.000E+00  0.000E+00
 -17.585  0.000E+00  0.000E+00
 -17.570  0.000E+00  0.000E+00
 -17.555  0.000E+00  0.000E+00
 -17.540  0.000E+00  0.000E+00
 -17.525  0.000E+00  0.000E+00
 -17.510  0.000E+00  0.000E+00
 -17.495  0.000E+00  0.000E+00
 -17.480  0.000E+00  0.000E+00
 -17.465  0.000E+00  0.000E+00
 -17.450  0.000E+00  0.000E+00
 -17.435  0.000E+00  0.000E+00
 -17.420  0.000E+00  0.000E+00
 -17.405  0.000E+00  0.000E+00
 -17.390  0.000E+00  0.000E+00
 -17.375  0.000E+00  0.000E+00
 -17.360  0.000E+00  0.000E+00
 -17.345  0.000E+00  0.000E+00
 -17.330  0.000E+00  0.000E+00
 -17.315  0.000E+00  0.000E+00
 -17.300  0.000E+00  0.000E+00
 -17.285  0.000E+00  0.000E+00
 -17.270  0.000E+00  0.000E+00
 -17.255  0.000E+00  0.000E+00
 -17.240  0.000E+00  0.000E+00
 -17.225  0.000E+00  0.000E+00
 -17.210  0.000E+00  0.000E+00
 -17.195  0.000E+00  0.000E+00
 -17.180  0.000E+00  0.000E+00
 -17.165  0.000E+00  0.000E+00
 -17.150  0.000E+00  0.000E+00
 -17.135  0.000E+00  0.000E+00
 -17.120  0.000E+00  0.000E+00
 -17.105  0.000E+00  0.000E+00
 -17.090  0.000E+00  0.000E+00
 -17.075  0.000E+00  0.000E+00
 -17.060  0.000E+00  0.000E+00
 -17.045  0.000E+00  0.000E+00
 -17.030  0.000E+00  0.000E+00
 -17.015  0.563E-13  0.563E-13
 -17.000  0.863E-12  0.863E-12
 -16.985  0.307E-11  0.307E-11
 -16.970  0.932E-11  0.932E-11
 -16.955  0.272E-10  0.272E-10
 -16.940  0.766E-10  0.766E-10
 -16.925  0.211E-09  0.211E-09
 -16.910  0.565E-09  0.565E-09
 -16.895  0.148E-08  0.148E-08
 -16.880  0.379E-08  0.379E-08
 -16.865  0.946E-08  0.946E-08
 -16.850  0.231E-07  0.231E-07
 -16.835  0.549E-07  0.549E-07
 -16.820  0.128E-06  0.128E-06
 -16.805  0.290E-06  0.290E-06
 -16.790  0.642E-06  0.642E-06
 -16.775  0.139E-05  0.139E-05
 -16.760  0.293E-05  0.293E-05
 -16.745  0.605E-05  0.605E-05
 -16.730  0.122E-04  0.122E-04
 -16.715  0.240E-04  0.240E-04
 -16.700  0.461E-04  0.461E-04
 -16.685  0.865E-04  0.865E-04
 -16.670  0.159E-03  0.159E-03
 -16.655  0.284E-03  0.284E-03
 -16.640  0.496E-03  0.496E-03
 -16.625  0.847E-03  0.847E-03
 -16.610  0.141E-02  0.141E-02
 -16.595  0.230E-02  0.230E-02
 -16.580  0.367E-02  0.367E-02
 -16.565  0.570E-02  0.570E-02
 -16.550  0.866E-02  0.866E-02
 -16.535  0.129E-01  0.129E-01
 -16.520  0.187E-01  0.187E-01
 -16.505  0.265E-01  0.265E-01
 -16.490  0.368E-01  0.368E-01
 -16.475  0.499E-01  0.499E-01
 -16.460  0.661E-01  0.661E-01
 -16.445  0.858E-01  0.858E-01
 -16.430  0.109E+00  0.109E+00
 -16.415  0.136E+00  0.136E+00
 -16.400  0.165E+00  0.165E+00
 -16.385  0.197E+00  0.197E+00
 -16.370  0.231E+00  0.231E+00
 -16.355  0.265E+00  0.265E+00
 -16.340  0.299E+00  0.299E+00
 -16.325  0.333E+00  0.333E+00
 -16.310  0.365E+00  0.365E+00
 -16.295  0.395E+00  0.395E+00
 -16.280  0.423E+00  0.423E+00
 -16.265  0.449E+00  0.449E+00
 -16.250  0.474E+00  0.474E+00
 -16.235  0.499E+00  0.499E+00
 -16.220  0.524E+00  0.524E+00
 -16.205  0.549E+00  0.549E+00
 -16.190  0.575E+00  0.575E+00
 -16.175  0.601E+00  0.601E+00
 -16.160  0.626E+00  0.626E+00
 -16.145  0.650E+00  0.650E+00
 -16.130  0.671E+00  0.671E+00
 -16.115  0.687E+00  0.687E+00
 -16.100  0.696E+00  0.696E+00
 -16.085  0.699E+00  0.699E+00
 -16.070  0.695E+00  0.695E+00
 -16.055  0.683E+00  0.683E+00
 -16.040  0.665E+00  0.665E+00
 -16.025  0.642E+00  0.642E+00
 -16.010  0.614E+00  0.614E+00
 -15.995  0.585E+00  0.585E+00
 -15.980  0.556E+00  0.556E+00
 -15.965  0.527E+00  0.527E+00
 -15.950  0.500E+00  0.500E+00
 -15.935  0.477E+00  0.477E+00
 -15.920  0.455E+00  0.455E+00
 -15.905  0.437E+00  0.437E+00
 -15.890  0.419E+00  0.419E+00
 -15.875  0.403E+00  0.403E+00
 -15.860  0.386E+00  0.386E+00
 -15.845  0.368E+00  0.368E+00
 -15.830  0.348E+00  0.348E+00
 -15.815  0.326E+00  0.326E+00
 -15.800  0.302E+00  0.302E+00
 -15.785  0.276E+00  0.276E+00
 -15.770  0.248E+00  0.248E+00
 -15.755  0.219E+00  0.219E+00
 -15.740  0.190E+00  0.190E+00
 -15.725  0.162E+00  0.162E+00
 -15.710  0.135E+00  0.135E+00
 -15.695  0.111E+00  0.111E+00
 -15.680  0.890E-01  0.890E-01
 -15.665  0.700E-01  0.700E-01
 -15.650  0.539E-01  0.539E-01
 -15.635  0.406E-01  0.406E-01
 -15.620  0.299E-01  0.299E-01
 -15.605  0.216E-01  0.216E-01
 -15.590  0.152E-01  0.152E-01
 -15.575  0.105E-01  0.105E-01
 -15.560  0.708E-02  0.708E-02
 -15.545  0.467E-02  0.467E-02
 -15.530  0.301E-02  0.301E-02
 -15.515  0.190E-02  0.190E-02
 -15.500  0.117E-02  0.117E-02
 -15.485  0.704E-03  0.704E-03
 -15.470  0.414E-03  0.414E-03
 -15.455  0.238E-03  0.238E-03
 -15.440  0.134E-03  0.134E-03
 -15.425  0.734E-04  0.734E-04
 -15.410  0.394E-04  0.394E-04
 -15.395  0.206E-04  0.206E-04
 -15.380  0.106E-04  0.106E-04
 -15.365  0.528E-05  0.528E-05
 -15.350  0.258E-05  0.258E-05
 -15.335  0.123E-05  0.123E-05
 -15.320  0.573E-06  0.573E-06
 -15.305  0.261E-06  0.261E-06
 -15.290  0.116E-06  0.116E-06
 -15.275  0.503E-07  0.503E-07
 -15.260  0.213E-07  0.213E-07
 -15.245  0.882E-08  0.882E-08
 -15.230  0.357E-08  0.357E-08
 -15.215  0.141E-08  0.141E-08
 -15.200  0.543E-09  0.543E-09
 -15.185  0.204E-09  0.204E-09
 -15.170  0.751E-10  0.751E-10
 -15.155  0.269E-10  0.269E-10
 -15.140  0.939E-11  0.939E-11
 -15.125  0.310E-11  0.310E-11
 -15.110  0.954E-12  0.954E-12
 -15.095  0.205E-12  0.205E-12
 -15.080  0.000E+00  0.000E+00
 -15.065  0.000E+00  0.000E+00
 -15.050  0.000E+00  0.000E+00
 -15.035  0.000E+00  0.000E+00
 -15.020  0.000E+00  0.000E+00
 -15.005  0.000E+00  0.000E+00
 -14.990  0.000E+00  0.000E+00
 -14.975  0.000E+00  0.000E+00
 -14.960  0.000E+00  0.000E+00
 -14.945  0.000E+00  0.000E+00
 -14.930  0.000E+00  0.000E+00
 -14.915  0.000E+00  0.000E+00
 -14.900  0.000E+00  0.000E+00
 -14.885  0.000E+00  0.000E+00
 -14.870  0.000E+00  0.000E+00
 -14.855  0.000E+00  0.000E+00
 -14.840  0.000E+00  0.000E+00
 -14.825  0.000E+00  0.000E+00
 -14.810  0.000E+00  0.000E+00
 -14.795  0.000E+00  0.000E+00
 -14.780  0.000E+00  0.000E+00
 -14.765  0.000E+00  0.000E+00
 -14.750  0.000E+00  0.000E+00
 -14.735  0.000E+00  0.000E+00
 -14.720  0.000E+00  0.000E+00
 -14.705  0.000E+00  0.000E+00
 -14.690  0.000E+00  0.000E+00
 -14.675  0.000E+00  0.000E+00
 -14.660  0.000E+00  0.000E+00
 -14.645  0.123E-12  0.123E-12
 -14.630  0.441E-12  0.441E-12
 -14.615  0.135E-11  0.135E-11
 -14.600  0.394E-11  0.394E-11
 -14.585  0.111E-10  0.111E-10
 -14.570  0.306E-10  0.306E-10
 -14.555  0.823E-10  0.823E-10
 -14.540  0.216E-09  0.216E-09
 -14.525  0.553E-09  0.553E-09
 -14.510  0.138E-08  0.138E-08
 -14.495  0.338E-08  0.338E-08
 -14.480  0.805E-08  0.805E-08
 -14.465  0.187E-07  0.187E-07
 -14.450  0.426E-07  0.426E-07
 -14.435  0.947E-07  0.947E-07
 -14.420  0.205E-06  0.205E-06
 -14.405  0.435E-06  0.435E-06
 -14.390  0.900E-06  0.900E-06
 -14.375  0.182E-05  0.182E-05
 -14.360  0.359E-05  0.359E-05
 -14.345  0.693E-05  0.693E-05
 -14.330  0.131E-04  0.131E-04
 -14.315  0.240E-04  0.240E-04
 -14.300  0.433E-04  0.433E-04
 -14.285  0.761E-04  0.761E-04
 -14.270  0.131E-03  0.131E-03
 -14.255  0.220E-03  0.220E-03
 -14.240  0.362E-03  0.362E-03
 -14.225  0.582E-03  0.582E-03
 -14.210  0.916E-03  0.916E-03
 -14.195  0.141E-02  0.141E-02
 -14.180  0.213E-02  0.213E-02
 -14.165  0.314E-02  0.314E-02
 -14.150  0.454E-02  0.454E-02
 -14.135  0.644E-02  0.644E-02
 -14.120  0.896E-02  0.896E-02
 -14.105  0.122E-01  0.122E-01
 -14.090  0.164E-01  0.164E-01
 -14.075  0.216E-01  0.216E-01
 -14.060  0.280E-01  0.280E-01
 -14.045  0.357E-01  0.357E-01
 -14.030  0.449E-01  0.449E-01
 -14.015  0.557E-01  0.557E-01
 -14.000  0.681E-01  0.681E-01
 -13.985  0.823E-01  0.823E-01
 -13.970  0.984E-01  0.984E-01
 -13.955  0.116E+00  0.116E+00
 -13.940  0.136E+00  0.136E+00
 -13.925  0.158E+00  0.158E+00
 -13.910  0.182E+00  0.182E+00
 -13.895  0.207E+00  0.207E+00
 -13.880  0.234E+00  0.234E+00
 -13.865  0.262E+00  0.262E+00
 -13.850  0.291E+00  0.291E+00
 -13.835  0.320E+00  0.320E+00
 -13.820  0.348E+00  0.348E+00
 -13.805  0.376E+00  0.376E+00
 -13.790  0.401E+00  0.401E+00
 -13.775  0.424E+00  0.424E+00
 -13.760  0.444E+00  0.444E+00
 -13.745  0.460E+00  0.460E+00
 -13.730  0.472E+00  0.472E+00
 -13.715  0.479E+00  0.479E+00
 -13.700  0.482E+00  0.482E+00
 -13.685  0.480E+00  0.480E+00
 -13.670  0.475E+00  0.475E+00
 -13.655  0.467E+00  0.467E+00
 -13.640  0.457E+00  0.457E+00
 -13.625  0.445E+00  0.445E+00
 -13.610  0.432E+00  0.432E+00
 -13.595  0.419E+00  0.419E+00
 -13.580  0.406E+00  0.406E+00
 -13.565  0.394E+00  0.394E+00
 -13.550  0.382E+00  0.382E+00
 -13.535  0.372E+00  0.372E+00
 -13.520  0.361E+00  0.361E+00
 -13.505  0.352E+00  0.352E+00
 -13.490  0.342E+00  0.342E+00
 -13.475  0.333E+00  0.333E+00
 -13.460  0.323E+00  0.323E+00
 -13.445  0.313E+00  0.313E+00
 -13.430  0.302E+00  0.302E+00
 -13.415  0.291E+00  0.291E+00
 -13.400  0.279E+00  0.279E+00
 -13.385  0.267E+00  0.267E+00
 -13.370  0.254E+00  0.254E+00
 -13.355  0.241E+00  0.241E+00
 -13.340  0.228E+00  0.228E+00
 -13.325  0.215E+00  0.215E+00
 -13.310  0.203E+00  0.203E+00
 -13.295  0.190E+00  0.190E+00
 -13.280  0.178E+00  0.178E+00
 -13.265  0.167E+00  0.167E+00
 -13.250  0.157E+00  0.157E+00
 -13.235  0.147E+00  0.147E+00
 -13.220  0.138E+00  0.138E+00
 -13.205  0.130E+00  0.130E+00
 -13.190  0.122E+00  0.122E+00
 -13.175  0.114E+00  0.114E+00
 -13.160  0.106E+00  0.106E+00
 -13.145  0.984E-01  0.984E-01
 -13.130  0.904E-01  0.904E-01
 -13.115  0.824E-01  0.824E-01
 -13.100  0.742E-01  0.742E-01
 -13.085  0.661E-01  0.661E-01
 -13.070  0.581E-01  0.581E-01
 -13.055  0.505E-01  0.505E-01
 -13.040  0.435E-01  0.435E-01
 -13.025  0.374E-01  0.374E-01
 -13.010  0.322E-01  0.322E-01
 -12.995  0.284E-01  0.284E-01
 -12.980  0.262E-01  0.262E-01
 -12.965  0.258E-01  0.258E-01
 -12.950  0.277E-01  0.277E-01
 -12.935  0.320E-01  0.320E-01
 -12.920  0.393E-01  0.393E-01
 -12.905  0.500E-01  0.500E-01
 -12.890  0.646E-01  0.646E-01
 -12.875  0.836E-01  0.836E-01
 -12.860  0.108E+00  0.108E+00
 -12.845  0.137E+00  0.137E+00
 -12.830  0.172E+00  0.172E+00
 -12.815  0.213E+00  0.213E+00
 -12.800  0.261E+00  0.261E+00
 -12.785  0.314E+00  0.314E+00
 -12.770  0.373E+00  0.373E+00
 -12.755  0.437E+00  0.437E+00
 -12.740  0.506E+00  0.506E+00
 -12.725  0.578E+00  0.578E+00
 -12.710  0.651E+00  0.651E+00
 -12.695  0.726E+00  0.726E+00
 -12.680  0.799E+00  0.799E+00
 -12.665  0.870E+00  0.870E+00
 -12.650  0.938E+00  0.938E+00
 -12.635  0.100E+01  0.100E+01
 -12.620  0.106E+01  0.106E+01
 -12.605  0.111E+01  0.111E+01
 -12.590  0.115E+01  0.115E+01
 -12.575  0.118E+01  0.118E+01
 -12.560  0.120E+01  0.120E+01
 -12.545  0.122E+01  0.122E+01
 -12.530  0.122E+01  0.122E+01
 -12.515  0.122E+01  0.122E+01
 -12.500  0.122E+01  0.122E+01
 -12.485  0.120E+01  0.120E+01
 -12.470  0.119E+01  0.119E+01
 -12.455  0.117E+01  0.117E+01
 -12.440  0.115E+01  0.115E+01
 -12.425  0.113E+01  0.113E+01
 -12.410  0.111E+01  0.111E+01
 -12.395  0.109E+01  0.109E+01
 -12.380  0.107E+01  0.107E+01
 -12.365  0.105E+01  0.105E+01
 -12.350  0.103E+01  0.103E+01
 -12.335  0.100E+01  0.100E+01
 -12.320  0.980E+00  0.980E+00
 -12.305  0.952E+00  0.952E+00
 -12.290  0.920E+00  0.920E+00
 -12.275  0.883E+00  0.883E+00
 -12.260  0.841E+00  0.841E+00
 -12.245  0.794E+00  0.794E+00
 -12.230  0.743E+00  0.743E+00
 -12.215  0.687E+00  0.687E+00
 -12.200  0.629E+00  0.629E+00
 -12.185  0.569E+00  0.569E+00
 -12.170  0.509E+00  0.509E+00
 -12.155  0.450E+00  0.450E+00
 -12.140  0.393E+00  0.393E+00
 -12.125  0.339E+00  0.339E+00
 -12.110  0.288E+00  0.288E+00
 -12.095  0.242E+00  0.242E+00
 -12.080  0.201E+00  0.201E+00
 -12.065  0.164E+00  0.164E+00
 -12.050  0.132E+00  0.132E+00
 -12.035  0.105E+00  0.105E+00
 -12.020  0.823E-01  0.823E-01
 -12.005  0.634E-01  0.634E-01
 -11.990  0.481E-01  0.481E-01
 -11.975  0.358E-01  0.358E-01
 -11.960  0.263E-01  0.263E-01
 -11.945  0.189E-01  0.189E-01
 -11.930  0.134E-01  0.134E-01
 -11.915  0.926E-02  0.926E-02
 -11.900  0.630E-02  0.630E-02
 -11.885  0.420E-02  0.420E-02
 -11.870  0.275E-02  0.275E-02
 -11.855  0.176E-02  0.176E-02
 -11.840  0.110E-02  0.110E-02
 -11.825  0.677E-03  0.677E-03
 -11.810  0.407E-03  0.407E-03
 -11.795  0.239E-03  0.239E-03
 -11.780  0.138E-03  0.138E-03
 -11.765  0.776E-04  0.776E-04
 -11.750  0.427E-04  0.427E-04
 -11.735  0.230E-04  0.230E-04
 -11.720  0.121E-04  0.121E-04
 -11.705  0.623E-05  0.623E-05
 -11.690  0.313E-05  0.313E-05
 -11.675  0.154E-05  0.154E-05
 -11.660  0.739E-06  0.739E-06
 -11.645  0.347E-06  0.347E-06
 -11.630  0.159E-06  0.159E-06
 -11.615  0.712E-07  0.712E-07
 -11.600  0.312E-07  0.312E-07
 -11.585  0.133E-07  0.133E-07
 -11.570  0.556E-08  0.556E-08
 -11.555  0.227E-08  0.227E-08
 -11.540  0.902E-09  0.902E-09
 -11.525  0.351E-09  0.351E-09
 -11.510  0.133E-09  0.133E-09
 -11.495  0.493E-10  0.493E-10
 -11.480  0.178E-10  0.178E-10
 -11.465  0.624E-11  0.624E-11
 -11.450  0.212E-11  0.212E-11
 -11.435  0.669E-12  0.669E-12
 -11.420  0.204E-12  0.204E-12
 -11.405  0.000E+00  0.000E+00
 -11.390  0.000E+00  0.000E+00
 -11.375  0.000E+00  0.000E+00
 -11.360  0.000E+00  0.000E+00
 -11.345  0.000E+00  0.000E+00
 -11.330  0.000E+00  0.000E+00
 -11.315  0.000E+00  0.000E+00
 -11.300  0.000E+00  0.000E+00
 -11.285  0.000E+00  0.000E+00
 -11.270  0.000E+00  0.000E+00
 -11.255  0.000E+00  0.000E+00
 -11.240  0.000E+00  0.000E+00
 -11.225  0.000E+00  0.000E+00
 -11.210  0.000E+00  0.000E+00
 -11.195  0.000E+00  0.000E+00
 -11.180  0.000E+00  0.000E+00
 -11.165  0.000E+00  0.000E+00
 -11.150  0.000E+00  0.000E+00
 -11.135  0.000E+00  0.000E+00
 -11.120  0.000E+00  0.000E+00
 -11.105  0.000E+00  0.000E+00
 -11.090  0.000E+00  0.000E+00
 -11.075  0.000E+00  0.000E+00
 -11.060  0.000E+00  0.000E+00
 -11.045  0.000E+00  0.000E+00
 -11.030  0.000E+00  0.000E+00
 -11.015  0.000E+00  0.000E+00
 -11.000  0.000E+00  0.000E+00
 -10.985  0.000E+00  0.000E+00
 -10.970  0.000E+00  0.000E+00
 -10.955  0.000E+00  0.000E+00
 -10.940  0.000E+00  0.000E+00
 -10.925  0.000E+00  0.000E+00
 -10.910  0.000E+00  0.000E+00
 -10.895  0.000E+00  0.000E+00
 -10.880  0.000E+00  0.000E+00
 -10.865  0.000E+00  0.000E+00
 -10.850  0.000E+00  0.000E+00
 -10.835  0.000E+00  0.000E+00
 -10.820  0.000E+00  0.000E+00
 -10.805  0.000E+00  0.000E+00
 -10.790  0.000E+00  0.000E+00
 -10.775  0.000E+00  0.000E+00
 -10.760  0.000E+00  0.000E+00
 -10.745  0.000E+00  0.000E+00
 -10.730  0.000E+00  0.000E+00
 -10.715  0.000E+00  0.000E+00
 -10.700  0.000E+00  0.000E+00
 -10.685  0.000E+00  0.000E+00
 -10.670  0.000E+00  0.000E+00
 -10.655  0.000E+00  0.000E+00
 -10.640  0.000E+00  0.000E+00
 -10.625  0.000E+00  0.000E+00
 -10.610  0.000E+00  0.000E+00
 -10.595  0.000E+00  0.000E+00
 -10.580  0.000E+00  0.000E+00
 -10.565  0.000E+00  0.000E+00
 -10.550  0.000E+00  0.000E+00
 -10.535  0.000E+00  0.000E+00
 -10.520  0.000E+00  0.000E+00
 -10.505  0.000E+00  0.000E+00
 -10.490  0.000E+00  0.000E+00
 -10.475  0.000E+00  0.000E+00
 -10.460  0.000E+00  0.000E+00
 -10.445  0.000E+00  0.000E+00
 -10.430  0.000E+00  0.000E+00
 -10.415  0.000E+00  0.000E+00
 -10.400  0.000E+00  0.000E+00
 -10.385  0.000E+00  0.000E+00
 -10.370  0.000E+00  0.000E+00
 -10.355  0.000E+00  0.000E+00
 -10.340  0.000E+00  0.000E+00
 -10.325  0.000E+00  0.000E+00
 -10.310  0.000E+00  0.000E+00
 -10.295  0.000E+00  0.000E+00
 -10.280  0.000E+00  0.000E+00
 -10.265  0.000E+00  0.000E+00
 -10.250  0.000E+00  0.000E+00
 -10.235  0.000E+00  0.000E+00
 -10.220  0.000E+00  0.000E+00
 -10.205  0.000E+00  0.000E+00
 -10.190  0.000E+00  0.000E+00
 -10.175  0.000E+00  0.000E+00
 -10.160  0.000E+00  0.000E+00
 -10.145  0.000E+00  0.000E+00
 -10.130  0.000E+00  0.000E+00
 -10.115  0.000E+00  0.000E+00
 -10.100  0.000E+00  0.000E+00
 -10.085  0.000E+00  0.000E+00
 -10.070  0.000E+00  0.000E+00
 -10.055  0.000E+00  0.000E+00
 -10.040  0.000E+00  0.000E+00
 -10.025  0.000E+00  0.000E+00
 -10.010  0.000E+00  0.000E+00
  -9.995  0.000E+00  0.000E+00
  -9.980  0.000E+00  0.000E+00
  -9.965  0.000E+00  0.000E+00
  -9.950  0.000E+00  0.000E+00
  -9.935  0.000E+00  0.000E+00
  -9.920  0.000E+00  0.000E+00
  -9.905  0.000E+00  0.000E+00
  -9.890  0.000E+00  0.000E+00
  -9.875  0.000E+00  0.000E+00
  -9.860  0.000E+00  0.000E+00
  -9.845  0.000E+00  0.000E+00
  -9.830  0.000E+00  0.000E+00
  -9.815  0.000E+00  0.000E+00
  -9.800  0.000E+00  0.000E+00
  -9.785  0.000E+00  0.000E+00
  -9.770  0.000E+00  0.000E+00
  -9.755  0.000E+00  0.000E+00
  -9.740  0.000E+00  0.000E+00
  -9.725  0.000E+00  0.000E+00
  -9.710  0.000E+00  0.000E+00
  -9.695  0.000E+00  0.000E+00
  -9.680  0.000E+00  0.000E+00
  -9.665  0.000E+00  0.000E+00
  -9.650  0.000E+00  0.000E+00
  -9.635  0.000E+00  0.000E+00
  -9.620  0.000E+00  0.000E+00
  -9.605  0.000E+00  0.000E+00
  -9.590  0.000E+00  0.000E+00
  -9.575  0.000E+00  0.000E+00
  -9.560  0.000E+00  0.000E+00
  -9.545  0.000E+00  0.000E+00
  -9.530  0.000E+00  0.000E+00
  -9.515  0.000E+00  0.000E+00
  -9.500  0.000E+00  0.000E+00
  -9.485  0.000E+00  0.000E+00
  -9.470  0.000E+00  0.000E+00
  -9.455  0.000E+00  0.000E+00
  -9.440  0.000E+00  0.000E+00
  -9.425  0.000E+00  0.000E+00
  -9.410  0.000E+00  0.000E+00
  -9.395  0.000E+00  0.000E+00
  -9.380  0.000E+00  0.000E+00
  -9.365  0.000E+00  0.000E+00
  -9.350  0.000E+00  0.000E+00
  -9.335  0.000E+00  0.000E+00
  -9.320  0.000E+00  0.000E+00
  -9.305  0.000E+00  0.000E+00
  -9.290  0.000E+00  0.000E+00
  -9.275  0.000E+00  0.000E+00
  -9.260  0.000E+00  0.000E+00
  -9.245  0.000E+00  0.000E+00
  -9.230  0.000E+00  0.000E+00
  -9.215  0.000E+00  0.000E+00
  -9.200  0.000E+00  0.000E+00
  -9.185  0.000E+00  0.000E+00
  -9.170  0.000E+00  0.000E+00
  -9.155  0.000E+00  0.000E+00
  -9.140  0.000E+00  0.000E+00
  -9.125  0.000E+00  0.000E+00
  -9.110  0.000E+00  0.000E+00
  -9.095  0.000E+00  0.000E+00
  -9.080  0.000E+00  0.000E+00
  -9.065  0.000E+00  0.000E+00
  -9.050  0.000E+00  0.000E+00
  -9.035  0.000E+00  0.000E+00
  -9.020  0.000E+00  0.000E+00
  -9.005  0.000E+00  0.000E+00
  -8.990  0.000E+00  0.000E+00
  -8.975  0.000E+00  0.000E+00
  -8.960  0.000E+00  0.000E+00
  -8.945  0.000E+00  0.000E+00
  -8.930  0.000E+00  0.000E+00
  -8.915  0.000E+00  0.000E+00
  -8.900  0.000E+00  0.000E+00
  -8.885  0.000E+00  0.000E+00
  -8.870  0.000E+00  0.000E+00
  -8.855  0.000E+00  0.000E+00
  -8.840  0.000E+00  0.000E+00
  -8.825  0.000E+00  0.000E+00
  -8.810  0.000E+00  0.000E+00
  -8.795  0.000E+00  0.000E+00
  -8.780  0.000E+00  0.000E+00
  -8.765  0.000E+00  0.000E+00
  -8.750  0.000E+00  0.000E+00
  -8.735  0.000E+00  0.000E+00
  -8.720  0.000E+00  0.000E+00
  -8.705  0.000E+00  0.000E+00
  -8.690  0.000E+00  0.000E+00
  -8.675  0.000E+00  0.000E+00
  -8.660  0.000E+00  0.000E+00
  -8.645  0.000E+00  0.000E+00
  -8.630  0.000E+00  0.000E+00
  -8.615  0.000E+00  0.000E+00
  -8.600  0.000E+00  0.000E+00
  -8.585  0.000E+00  0.000E+00
  -8.570  0.000E+00  0.000E+00
  -8.555  0.000E+00  0.000E+00
  -8.540  0.000E+00  0.000E+00
  -8.525  0.000E+00  0.000E+00
  -8.510  0.000E+00  0.000E+00
  -8.495  0.000E+00  0.000E+00
  -8.480  0.000E+00  0.000E+00
  -8.465  0.000E+00  0.000E+00
  -8.450  0.000E+00  0.000E+00
  -8.435  0.000E+00  0.000E+00
  -8.420  0.000E+00  0.000E+00
  -8.405  0.000E+00  0.000E+00
  -8.390  0.000E+00  0.000E+00
  -8.375  0.000E+00  0.000E+00
  -8.360  0.000E+00  0.000E+00
  -8.345  0.000E+00  0.000E+00
  -8.330  0.000E+00  0.000E+00
  -8.315  0.000E+00  0.000E+00
  -8.300  0.000E+00  0.000E+00
  -8.285  0.000E+00  0.000E+00
  -8.270  0.000E+00  0.000E+00
  -8.255  0.000E+00  0.000E+00
  -8.240  0.000E+00  0.000E+00
  -8.225  0.000E+00  0.000E+00
  -8.210  0.000E+00  0.000E+00
  -8.195  0.000E+00  0.000E+00
  -8.180  0.000E+00  0.000E+00
  -8.165  0.000E+00  0.000E+00
  -8.150  0.000E+00  0.000E+00
  -8.135  0.000E+00  0.000E+00
  -8.120  0.000E+00  0.000E+00
  -8.105  0.000E+00  0.000E+00
  -8.090  0.000E+00  0.000E+00
  -8.075  0.000E+00  0.000E+00
  -8.060  0.000E+00  0.000E+00
  -8.045  0.000E+00  0.000E+00
  -8.030  0.000E+00  0.000E+00
  -8.015  0.000E+00  0.000E+00
  -8.000  0.000E+00  0.000E+00
  -7.985  0.000E+00  0.000E+00
  -7.970  0.000E+00  0.000E+00
  -7.955  0.000E+00  0.000E+00
  -7.940  0.000E+00  0.000E+00
  -7.925  0.000E+00  0.000E+00
  -7.910  0.000E+00  0.000E+00
  -7.895  0.000E+00  0.000E+00
  -7.880  0.000E+00  0.000E+00
  -7.865  0.000E+00  0.000E+00
  -7.850  0.000E+00  0.000E+00
  -7.835  0.000E+00  0.000E+00
  -7.820  0.000E+00  0.000E+00
  -7.805  0.000E+00  0.000E+00
  -7.790  0.000E+00  0.000E+00
  -7.775  0.000E+00  0.000E+00
  -7.760  0.000E+00  0.000E+00
  -7.745  0.000E+00  0.000E+00
  -7.730  0.000E+00  0.000E+00
  -7.715  0.000E+00  0.000E+00
  -7.700  0.000E+00  0.000E+00
  -7.685  0.000E+00  0.000E+00
  -7.670  0.000E+00  0.000E+00
  -7.655  0.000E+00  0.000E+00
  -7.640  0.000E+00  0.000E+00
  -7.625  0.000E+00  0.000E+00
  -7.610  0.000E+00  0.000E+00
  -7.595  0.000E+00  0.000E+00
  -7.580  0.000E+00  0.000E+00
  -7.565  0.000E+00  0.000E+00
  -7.550  0.000E+00  0.000E+00
  -7.535  0.000E+00  0.000E+00
  -7.520  0.000E+00  0.000E+00
  -7.505  0.000E+00  0.000E+00
  -7.490  0.000E+00  0.000E+00
  -7.475  0.000E+00  0.000E+00
  -7.460  0.000E+00  0.000E+00
  -7.445  0.000E+00  0.000E+00
  -7.430  0.000E+00  0.000E+00
  -7.415  0.000E+00  0.000E+00
  -7.400  0.000E+00  0.000E+00
  -7.385  0.000E+00  0.000E+00
  -7.370  0.000E+00  0.000E+00
  -7.355  0.000E+00  0.000E+00
  -7.340  0.000E+00  0.000E+00
  -7.325  0.000E+00  0.000E+00
  -7.310  0.000E+00  0.000E+00
  -7.295  0.000E+00  0.000E+00
  -7.280  0.000E+00  0.000E+00
  -7.265  0.000E+00  0.000E+00
  -7.250  0.000E+00  0.000E+00
  -7.235  0.000E+00  0.000E+00
  -7.220  0.000E+00  0.000E+00
  -7.205  0.000E+00  0.000E+00
  -7.190  0.000E+00  0.000E+00
  -7.175  0.000E+00  0.000E+00
  -7.160  0.000E+00  0.000E+00
  -7.145  0.000E+00  0.000E+00
  -7.130  0.000E+00  0.000E+00
  -7.115  0.000E+00  0.000E+00
  -7.100  0.000E+00  0.000E+00
  -7.085  0.000E+00  0.000E+00
  -7.070  0.000E+00  0.000E+00
  -7.055  0.000E+00  0.000E+00
  -7.040  0.000E+00  0.000E+00
  -7.025  0.000E+00  0.000E+00
  -7.010  0.000E+00  0.000E+00
  -6.995  0.000E+00  0.000E+00
  -6.980  0.000E+00  0.000E+00
  -6.965  0.000E+00  0.000E+00
  -6.950  0.000E+00  0.000E+00
  -6.935  0.000E+00  0.000E+00
  -6.920  0.000E+00  0.000E+00
  -6.905  0.000E+00  0.000E+00
  -6.890  0.000E+00  0.000E+00
  -6.875  0.000E+00  0.000E+00
  -6.860  0.000E+00  0.000E+00
  -6.845  0.000E+00  0.000E+00
  -6.830  0.000E+00  0.000E+00
  -6.815  0.000E+00  0.000E+00
  -6.800  0.000E+00  0.000E+00
  -6.785  0.000E+00  0.000E+00
  -6.770  0.000E+00  0.000E+00
  -6.755  0.000E+00  0.000E+00
  -6.740  0.000E+00  0.000E+00
  -6.725  0.000E+00  0.000E+00
  -6.710  0.000E+00  0.000E+00
  -6.695  0.000E+00  0.000E+00
  -6.680  0.000E+00  0.000E+00
  -6.665  0.000E+00  0.000E+00
  -6.650  0.000E+00  0.000E+00
  -6.635  0.000E+00  0.000E+00
  -6.620  0.000E+00  0.000E+00
  -6.605  0.000E+00  0.000E+00
  -6.590  0.000E+00  0.000E+00
  -6.575  0.000E+00  0.000E+00
  -6.560  0.000E+00  0.000E+00
  -6.545  0.000E+00  0.000E+00
  -6.530  0.000E+00  0.000E+00
  -6.515  0.000E+00  0.000E+00
  -6.500  0.000E+00  0.000E+00
  -6.485  0.000E+00  0.000E+00
  -6.470  0.000E+00  0.000E+00
  -6.455  0.000E+00  0.000E+00
  -6.440  0.000E+00  0.000E+00
  -6.425  0.000E+00  0.000E+00
  -6.410  0.000E+00  0.000E+00
  -6.395  0.000E+00  0.000E+00
  -6.380  0.000E+00  0.000E+00
  -6.365  0.000E+00  0.000E+00
  -6.350  0.000E+00  0.000E+00
  -6.335  0.000E+00  0.000E+00
  -6.320  0.000E+00  0.000E+00
  -6.305  0.000E+00  0.000E+00
  -6.290  0.000E+00  0.000E+00
  -6.275  0.000E+00  0.000E+00
  -6.260  0.000E+00  0.000E+00
  -6.245  0.000E+00  0.000E+00
  -6.230  0.000E+00  0.000E+00
  -6.215  0.000E+00  0.000E+00
  -6.200  0.000E+00  0.000E+00
  -6.185  0.000E+00  0.000E+00
  -6.170  0.000E+00  0.000E+00
  -6.155  0.000E+00  0.000E+00
  -6.140  0.000E+00  0.000E+00
  -6.125  0.000E+00  0.000E+00
  -6.110  0.000E+00  0.000E+00
  -6.095  0.000E+00  0.000E+00
  -6.080  0.000E+00  0.000E+00
  -6.065  0.000E+00  0.000E+00
  -6.050  0.000E+00  0.000E+00
  -6.035  0.000E+00  0.000E+00
  -6.020  0.000E+00  0.000E+00
  -6.005  0.000E+00  0.000E+00
  -5.990  0.000E+00  0.000E+00
  -5.975  0.000E+00  0.000E+00
  -5.960  0.000E+00  0.000E+00
  -5.945  0.000E+00  0.000E+00
  -5.930  0.000E+00  0.000E+00
  -5.915  0.000E+00  0.000E+00
  -5.900  0.000E+00  0.000E+00
  -5.885  0.000E+00  0.000E+00
  -5.870  0.000E+00  0.000E+00
  -5.855  0.000E+00  0.000E+00
  -5.840  0.000E+00  0.000E+00
  -5.825  0.000E+00  0.000E+00
  -5.810  0.000E+00  0.000E+00
  -5.795  0.000E+00  0.000E+00
  -5.780  0.000E+00  0.000E+00
  -5.765  0.000E+00  0.000E+00
  -5.750  0.000E+00  0.000E+00
  -5.735  0.000E+00  0.000E+00
  -5.720  0.000E+00  0.000E+00
  -5.705  0.000E+00  0.000E+00
  -5.690  0.000E+00  0.000E+00
  -5.675  0.000E+00  0.000E+00
  -5.660  0.000E+00  0.000E+00
  -5.645  0.000E+00  0.000E+00
  -5.630  0.000E+00  0.000E+00
  -5.615  0.000E+00  0.000E+00
  -5.600  0.000E+00  0.000E+00
  -5.585  0.000E+00  0.000E+00
  -5.570  0.000E+00  0.000E+00
  -5.555  0.000E+00  0.000E+00
  -5.540  0.000E+00  0.000E+00
  -5.525  0.000E+00  0.000E+00
  -5.510  0.000E+00  0.000E+00
  -5.495  0.000E+00  0.000E+00
  -5.480  0.000E+00  0.000E+00
  -5.465  0.000E+00  0.000E+00
  -5.450  0.000E+00  0.000E+00
  -5.435  0.000E+00  0.000E+00
  -5.420  0.000E+00  0.000E+00
  -5.405  0.000E+00  0.000E+00
  -5.390  0.000E+00  0.000E+00
  -5.375  0.000E+00  0.000E+00
  -5.360  0.000E+00  0.000E+00
  -5.345  0.000E+00  0.000E+00
  -5.330  0.000E+00  0.000E+00
  -5.315  0.000E+00  0.000E+00
  -5.300  0.000E+00  0.000E+00
  -5.285  0.000E+00  0.000E+00
  -5.270  0.000E+00  0.000E+00
  -5.255  0.000E+00  0.000E+00
  -5.240  0.000E+00  0.000E+00
  -5.225  0.000E+00  0.000E+00
  -5.210  0.000E+00  0.000E+00
  -5.195  0.000E+00  0.000E+00
  -5.180  0.000E+00  0.000E+00
  -5.165  0.000E+00  0.000E+00
  -5.150  0.000E+00  0.000E+00
  -5.135  0.000E+00  0.000E+00
  -5.120  0.000E+00  0.000E+00
  -5.105  0.000E+00  0.000E+00
  -5.090  0.000E+00  0.000E+00
  -5.075  0.000E+00  0.000E+00
  -5.060  0.000E+00  0.000E+00
  -5.045  0.000E+00  0.000E+00
  -5.030  0.000E+00  0.000E+00
  -5.015  0.000E+00  0.000E+00
  -5.000  0.000E+00  0.000E+00
  -4.985  0.000E+00  0.000E+00
  -4.970  0.000E+00  0.000E+00
  -4.955  0.000E+00  0.000E+00
  -4.940  0.000E+00  0.000E+00
  -4.925  0.000E+00  0.000E+00
  -4.910  0.000E+00  0.000E+00
  -4.895  0.000E+00  0.000E+00
  -4.880  0.000E+00  0.000E+00
  -4.865  0.000E+00  0.000E+00
  -4.850  0.000E+00  0.000E+00
  -4.835  0.000E+00  0.000E+00
  -4.820  0.000E+00  0.000E+00
  -4.805  0.000E+00  0.000E+00
  -4.790  0.000E+00  0.000E+00
  -4.775  0.000E+00  0.000E+00
  -4.760  0.000E+00  0.000E+00
  -4.745  0.000E+00  0.000E+00
  -4.730  0.000E+00  0.000E+00
  -4.715  0.000E+00  0.000E+00
  -4.700  0.000E+00  0.000E+00
  -4.685  0.000E+00  0.000E+00
  -4.670  0.000E+00  0.000E+00
  -4.655  0.000E+00  0.000E+00
  -4.640  0.000E+00  0.000E+00
  -4.625  0.000E+00  0.000E+00
  -4.610  0.000E+00  0.000E+00
  -4.595  0.000E+00  0.000E+00
  -4.580  0.000E+00  0.000E+00
  -4.565  0.000E+00  0.000E+00
  -4.550  0.000E+00  0.000E+00
  -4.535  0.000E+00  0.000E+00
  -4.520  0.000E+00  0.000E+00
  -4.505  0.000E+00  0.000E+00
  -4.490  0.000E+00  0.000E+00
  -4.475  0.000E+00  0.000E+00
  -4.460  0.000E+00  0.000E+00
  -4.445  0.000E+00  0.000E+00
  -4.430  0.000E+00  0.000E+00
  -4.415  0.000E+00  0.000E+00
  -4.400  0.000E+00  0.000E+00
  -4.385  0.000E+00  0.000E+00
  -4.370  0.000E+00  0.000E+00
  -4.355  0.000E+00  0.000E+00
  -4.340  0.000E+00  0.000E+00
  -4.325  0.000E+00  0.000E+00
  -4.310  0.000E+00  0.000E+00
  -4.295  0.000E+00  0.000E+00
  -4.280  0.000E+00  0.000E+00
  -4.265  0.000E+00  0.000E+00
  -4.250  0.000E+00  0.000E+00
  -4.235  0.000E+00  0.000E+00
  -4.220  0.000E+00  0.000E+00
  -4.205  0.000E+00  0.000E+00
  -4.190  0.000E+00  0.000E+00
  -4.175  0.000E+00  0.000E+00
  -4.160  0.000E+00  0.000E+00
  -4.145  0.000E+00  0.000E+00
  -4.130  0.000E+00  0.000E+00
  -4.115  0.000E+00  0.000E+00
  -4.100  0.000E+00  0.000E+00
  -4.085  0.000E+00  0.000E+00
  -4.070  0.000E+00  0.000E+00
  -4.055  0.000E+00  0.000E+00
  -4.040  0.000E+00  0.000E+00
  -4.025  0.000E+00  0.000E+00
  -4.010  0.000E+00  0.000E+00
  -3.995  0.000E+00  0.000E+00
  -3.980  0.000E+00  0.000E+00
  -3.965  0.000E+00  0.000E+00
  -3.950  0.000E+00  0.000E+00
  -3.935  0.000E+00  0.000E+00
  -3.920  0.000E+00  0.000E+00
  -3.905  0.000E+00  0.000E+00
  -3.890  0.000E+00  0.000E+00
  -3.875  0.000E+00  0.000E+00
  -3.860  0.000E+00  0.000E+00
  -3.845  0.000E+00  0.000E+00
  -3.830  0.000E+00  0.000E+00
  -3.815  0.000E+00  0.000E+00
  -3.800  0.000E+00  0.000E+00
  -3.785  0.000E+00  0.000E+00
  -3.770  0.000E+00  0.000E+00
  -3.755  0.000E+00  0.000E+00
  -3.740  0.000E+00  0.000E+00
  -3.725  0.000E+00  0.000E+00
  -3.710  0.000E+00  0.000E+00
  -3.695  0.000E+00  0.000E+00
  -3.680  0.000E+00  0.000E+00
  -3.665  0.000E+00  0.000E+00
  -3.650  0.000E+00  0.000E+00
  -3.635  0.000E+00  0.000E+00
  -3.620  0.000E+00  0.000E+00
  -3.605  0.000E+00  0.000E+00
  -3.590  0.000E+00  0.000E+00
  -3.575  0.000E+00  0.000E+00
  -3.560  0.000E+00  0.000E+00
  -3.545  0.000E+00  0.000E+00
  -3.530  0.000E+00  0.000E+00
  -3.515  0.000E+00  0.000E+00
  -3.500  0.000E+00  0.000E+00
  -3.485  0.000E+00  0.000E+00
  -3.470  0.000E+00  0.000E+00
  -3.455  0.000E+00  0.000E+00
  -3.440  0.000E+00  0.000E+00
  -3.425  0.000E+00  0.000E+00
  -3.410  0.000E+00  0.000E+00
  -3.395  0.000E+00  0.000E+00
  -3.380  0.000E+00  0.000E+00
  -3.365  0.000E+00  0.000E+00
  -3.350  0.000E+00  0.000E+00
  -3.335  0.000E+00  0.000E+00
  -3.320  0.000E+00  0.000E+00
  -3.305  0.000E+00  0.000E+00
  -3.290  0.000E+00  0.000E+00
  -3.275  0.000E+00  0.000E+00
  -3.260  0.000E+00  0.000E+00
  -3.245  0.000E+00  0.000E+00
  -3.230  0.000E+00  0.000E+00
  -3.215  0.000E+00  0.000E+00
  -3.200  0.590E-14  0.590E-14
  -3.185  0.333E-13  0.333E-13
  -3.170  0.107E-12  0.107E-12
  -3.155  0.328E-12  0.328E-12
  -3.140  0.942E-12  0.942E-12
  -3.125  0.265E-11  0.265E-11
  -3.110  0.724E-11  0.724E-11
  -3.095  0.193E-10  0.193E-10
  -3.080  0.504E-10  0.504E-10
  -3.065  0.128E-09  0.128E-09
  -3.050  0.319E-09  0.319E-09
  -3.035  0.774E-09  0.774E-09
  -3.020  0.183E-08  0.183E-08
  -3.005  0.424E-08  0.424E-08
  -2.990  0.958E-08  0.958E-08
  -2.975  0.211E-07  0.211E-07
  -2.960  0.455E-07  0.455E-07
  -2.945  0.955E-07  0.955E-07
  -2.930  0.196E-06  0.196E-06
  -2.915  0.393E-06  0.393E-06
  -2.900  0.769E-06  0.769E-06
  -2.885  0.147E-05  0.147E-05
  -2.870  0.274E-05  0.274E-05
  -2.855  0.500E-05  0.500E-05
  -2.840  0.891E-05  0.891E-05
  -2.825  0.155E-04  0.155E-04
  -2.810  0.263E-04  0.263E-04
  -2.795  0.437E-04  0.437E-04
  -2.780  0.708E-04  0.708E-04
  -2.765  0.112E-03  0.112E-03
  -2.750  0.174E-03  0.174E-03
  -2.735  0.263E-03  0.263E-03
  -2.720  0.389E-03  0.389E-03
  -2.705  0.563E-03  0.563E-03
  -2.690  0.796E-03  0.796E-03
  -2.675  0.110E-02  0.110E-02
  -2.660  0.149E-02  0.149E-02
  -2.645  0.198E-02  0.198E-02
  -2.630  0.257E-02  0.257E-02
  -2.615  0.327E-02  0.327E-02
  -2.600  0.407E-02  0.407E-02
  -2.585  0.498E-02  0.498E-02
  -2.570  0.598E-02  0.598E-02
  -2.555  0.706E-02  0.706E-02
  -2.540  0.819E-02  0.819E-02
  -2.525  0.936E-02  0.936E-02
  -2.510  0.105E-01  0.105E-01
  -2.495  0.117E-01  0.117E-01
  -2.480  0.129E-01  0.129E-01
  -2.465  0.140E-01  0.140E-01
  -2.450  0.150E-01  0.150E-01
  -2.435  0.161E-01  0.161E-01
  -2.420  0.170E-01  0.170E-01
  -2.405  0.180E-01  0.180E-01
  -2.390  0.189E-01  0.189E-01
  -2.375  0.197E-01  0.197E-01
  -2.360  0.206E-01  0.206E-01
  -2.345  0.215E-01  0.215E-01
  -2.330  0.225E-01  0.225E-01
  -2.315  0.236E-01  0.236E-01
  -2.300  0.249E-01  0.249E-01
  -2.285  0.264E-01  0.264E-01
  -2.270  0.281E-01  0.281E-01
  -2.255  0.302E-01  0.302E-01
  -2.240  0.327E-01  0.327E-01
  -2.225  0.357E-01  0.357E-01
  -2.210  0.391E-01  0.391E-01
  -2.195  0.429E-01  0.429E-01
  -2.180  0.472E-01  0.472E-01
  -2.165  0.518E-01  0.518E-01
  -2.150  0.568E-01  0.568E-01
  -2.135  0.620E-01  0.620E-01
  -2.120  0.674E-01  0.674E-01
  -2.105  0.728E-01  0.728E-01
  -2.090  0.783E-01  0.783E-01
  -2.075  0.837E-01  0.837E-01
  -2.060  0.890E-01  0.890E-01
  -2.045  0.943E-01  0.943E-01
  -2.030  0.994E-01  0.994E-01
  -2.015  0.104E+00  0.104E+00
  -2.000  0.109E+00  0.109E+00
  -1.985  0.114E+00  0.114E+00
  -1.970  0.119E+00  0.119E+00
  -1.955  0.124E+00  0.124E+00
  -1.940  0.128E+00  0.128E+00
  -1.925  0.133E+00  0.133E+00
  -1.910  0.137E+00  0.137E+00
  -1.895  0.141E+00  0.141E+00
  -1.880  0.145E+00  0.145E+00
  -1.865  0.148E+00  0.148E+00
  -1.850  0.151E+00  0.151E+00
  -1.835  0.153E+00  0.153E+00
  -1.820  0.155E+00  0.155E+00
  -1.805  0.157E+00  0.157E+00
  -1.790  0.158E+00  0.158E+00
  -1.775  0.159E+00  0.159E+00
  -1.760  0.160E+00  0.160E+00
  -1.745  0.161E+00  0.161E+00
  -1.730  0.161E+00  0.161E+00
  -1.715  0.162E+00  0.162E+00
  -1.700  0.163E+00  0.163E+00
  -1.685  0.165E+00  0.165E+00
  -1.670  0.167E+00  0.167E+00
  -1.655  0.170E+00  0.170E+00
  -1.640  0.174E+00  0.174E+00
  -1.625  0.179E+00  0.179E+00
  -1.610  0.185E+00  0.185E+00
  -1.595  0.192E+00  0.192E+00
  -1.580  0.200E+00  0.200E+00
  -1.565  0.209E+00  0.209E+00
  -1.550  0.219E+00  0.219E+00
  -1.535  0.229E+00  0.229E+00
  -1.520  0.238E+00  0.238E+00
  -1.505  0.248E+00  0.248E+00
  -1.490  0.256E+00  0.256E+00
  -1.475  0.262E+00  0.262E+00
  -1.460  0.266E+00  0.266E+00
  -1.445  0.267E+00  0.267E+00
  -1.430  0.265E+00  0.265E+00
  -1.415  0.259E+00  0.259E+00
  -1.400  0.249E+00  0.249E+00
  -1.385  0.237E+00  0.237E+00
  -1.370  0.221E+00  0.221E+00
  -1.355  0.203E+00  0.203E+00
  -1.340  0.183E+00  0.183E+00
  -1.325  0.163E+00  0.163E+00
  -1.310  0.142E+00  0.142E+00
  -1.295  0.122E+00  0.122E+00
  -1.280  0.102E+00  0.102E+00
  -1.265  0.851E-01  0.851E-01
  -1.250  0.697E-01  0.697E-01
  -1.235  0.566E-01  0.566E-01
  -1.220  0.457E-01  0.457E-01
  -1.205  0.369E-01  0.369E-01
  -1.190  0.302E-01  0.302E-01
  -1.175  0.251E-01  0.251E-01
  -1.160  0.215E-01  0.215E-01
  -1.145  0.190E-01  0.190E-01
  -1.130  0.173E-01  0.173E-01
  -1.115  0.162E-01  0.162E-01
  -1.100  0.154E-01  0.154E-01
  -1.085  0.149E-01  0.149E-01
  -1.070  0.144E-01  0.144E-01
  -1.055  0.138E-01  0.138E-01
  -1.040  0.132E-01  0.132E-01
  -1.025  0.124E-01  0.124E-01
  -1.010  0.116E-01  0.116E-01
  -0.995  0.106E-01  0.106E-01
  -0.980  0.958E-02  0.958E-02
  -0.965  0.856E-02  0.856E-02
  -0.950  0.755E-02  0.755E-02
  -0.935  0.659E-02  0.659E-02
  -0.920  0.573E-02  0.573E-02
  -0.905  0.496E-02  0.496E-02
  -0.890  0.433E-02  0.433E-02
  -0.875  0.382E-02  0.382E-02
  -0.860  0.346E-02  0.346E-02
  -0.845  0.324E-02  0.324E-02
  -0.830  0.317E-02  0.317E-02
  -0.815  0.327E-02  0.327E-02
  -0.800  0.353E-02  0.353E-02
  -0.785  0.399E-02  0.399E-02
  -0.770  0.465E-02  0.465E-02
  -0.755  0.554E-02  0.554E-02
  -0.740  0.671E-02  0.671E-02
  -0.725  0.817E-02  0.817E-02
  -0.710  0.998E-02  0.998E-02
  -0.695  0.122E-01  0.122E-01
  -0.680  0.148E-01  0.148E-01
  -0.665  0.179E-01  0.179E-01
  -0.650  0.216E-01  0.216E-01
  -0.635  0.258E-01  0.258E-01
  -0.620  0.307E-01  0.307E-01
  -0.605  0.364E-01  0.364E-01
  -0.590  0.429E-01  0.429E-01
  -0.575  0.502E-01  0.502E-01
  -0.560  0.587E-01  0.587E-01
  -0.545  0.682E-01  0.682E-01
  -0.530  0.789E-01  0.789E-01
  -0.515  0.908E-01  0.908E-01
  -0.500  0.104E+00  0.104E+00
  -0.485  0.118E+00  0.118E+00
  -0.470  0.134E+00  0.134E+00
  -0.455  0.150E+00  0.150E+00
  -0.440  0.167E+00  0.167E+00
  -0.425  0.184E+00  0.184E+00
  -0.410  0.201E+00  0.201E+00
  -0.395  0.217E+00  0.217E+00
  -0.380  0.232E+00  0.232E+00
  -0.365  0.245E+00  0.245E+00
  -0.350  0.255E+00  0.255E+00
  -0.335  0.263E+00  0.263E+00
  -0.320  0.267E+00  0.267E+00
  -0.305  0.269E+00  0.269E+00
  -0.290  0.269E+00  0.269E+00
  -0.275  0.266E+00  0.266E+00
  -0.260  0.261E+00  0.261E+00
  -0.245  0.254E+00  0.254E+00
  -0.230  0.246E+00  0.246E+00
  -0.215  0.238E+00  0.238E+00
  -0.200  0.230E+00  0.230E+00
  -0.185  0.222E+00  0.222E+00
  -0.170  0.216E+00  0.216E+00
  -0.155  0.211E+00  0.211E+00
  -0.140  0.208E+00  0.208E+00
  -0.125  0.207E+00  0.207E+00
  -0.110  0.208E+00  0.208E+00
  -0.095  0.211E+00  0.211E+00
  -0.080  0.215E+00  0.215E+00
  -0.065  0.222E+00  0.222E+00
  -0.050  0.229E+00  0.229E+00
  -0.035  0.238E+00  0.238E+00
  -0.020  0.248E+00  0.248E+00
  -0.005  0.258E+00  0.258E+00
   0.010  0.267E+00  0.267E+00
   0.025  0.277E+00  0.277E+00
   0.040  0.286E+00  0.286E+00
   0.055  0.294E+00  0.294E+00
   0.070  0.301E+00  0.301E+00
   0.085  0.307E+00  0.307E+00
   0.100  0.312E+00  0.312E+00
   0.115  0.316E+00  0.316E+00
   0.130  0.317E+00  0.317E+00
   0.145  0.317E+00  0.317E+00
   0.160  0.316E+00  0.316E+00
   0.175  0.312E+00  0.312E+00
   0.190  0.306E+00  0.306E+00
   0.205  0.298E+00  0.298E+00
   0.220  0.289E+00  0.289E+00
   0.235  0.277E+00  0.277E+00
   0.250  0.263E+00  0.263E+00
   0.265  0.248E+00  0.248E+00
   0.280  0.232E+00  0.232E+00
   0.295  0.214E+00  0.214E+00
   0.310  0.196E+00  0.196E+00
   0.325  0.178E+00  0.178E+00
   0.340  0.159E+00  0.159E+00
   0.355  0.141E+00  0.141E+00
   0.370  0.124E+00  0.124E+00
   0.385  0.107E+00  0.107E+00
   0.400  0.916E-01  0.916E-01
   0.415  0.773E-01  0.773E-01
   0.430  0.643E-01  0.643E-01
   0.445  0.528E-01  0.528E-01
   0.460  0.427E-01  0.427E-01
   0.475  0.341E-01  0.341E-01
   0.490  0.268E-01  0.268E-01
   0.505  0.208E-01  0.208E-01
   0.520  0.159E-01  0.159E-01
   0.535  0.120E-01  0.120E-01
   0.550  0.902E-02  0.902E-02
   0.565  0.672E-02  0.672E-02
   0.580  0.499E-02  0.499E-02
   0.595  0.373E-02  0.373E-02
   0.610  0.282E-02  0.282E-02
   0.625  0.217E-02  0.217E-02
   0.640  0.172E-02  0.172E-02
   0.655  0.140E-02  0.140E-02
   0.670  0.118E-02  0.118E-02
   0.685  0.104E-02  0.104E-02
   0.700  0.932E-03  0.932E-03
   0.715  0.860E-03  0.860E-03
   0.730  0.809E-03  0.809E-03
   0.745  0.773E-03  0.773E-03
   0.760  0.746E-03  0.746E-03
   0.775  0.724E-03  0.724E-03
   0.790  0.706E-03  0.706E-03
   0.805  0.689E-03  0.689E-03
   0.820  0.673E-03  0.673E-03
   0.835  0.656E-03  0.656E-03
   0.850  0.639E-03  0.639E-03
   0.865  0.622E-03  0.622E-03
   0.880  0.605E-03  0.605E-03
   0.895  0.589E-03  0.589E-03
   0.910  0.575E-03  0.575E-03
   0.925  0.562E-03  0.562E-03
   0.940  0.550E-03  0.550E-03
   0.955  0.540E-03  0.540E-03
   0.970  0.532E-03  0.532E-03
   0.985  0.524E-03  0.524E-03
   1.000  0.516E-03  0.516E-03
   1.015  0.510E-03  0.510E-03
   1.030  0.504E-03  0.504E-03
   1.045  0.499E-03  0.499E-03
   1.060  0.496E-03  0.496E-03
   1.075  0.495E-03  0.495E-03
   1.090  0.497E-03  0.497E-03
   1.105  0.503E-03  0.503E-03
   1.120  0.514E-03  0.514E-03
   1.135  0.531E-03  0.531E-03
   1.150  0.553E-03  0.553E-03
   1.165  0.582E-03  0.582E-03
   1.180  0.617E-03  0.617E-03
   1.195  0.659E-03  0.659E-03
   1.210  0.706E-03  0.706E-03
   1.225  0.759E-03  0.759E-03
   1.240  0.815E-03  0.815E-03
   1.255  0.874E-03  0.874E-03
   1.270  0.933E-03  0.933E-03
   1.285  0.989E-03  0.989E-03
   1.300  0.104E-02  0.104E-02
   1.315  0.108E-02  0.108E-02
   1.330  0.112E-02  0.112E-02
   1.345  0.114E-02  0.114E-02
   1.360  0.115E-02  0.115E-02
   1.375  0.114E-02  0.114E-02
   1.390  0.112E-02  0.112E-02
   1.405  0.108E-02  0.108E-02
   1.420  0.103E-02  0.103E-02
   1.435  0.960E-03  0.960E-03
   1.450  0.886E-03  0.886E-03
   1.465  0.804E-03  0.804E-03
   1.480  0.717E-03  0.717E-03
   1.495  0.629E-03  0.629E-03
   1.510  0.543E-03  0.543E-03
   1.525  0.460E-03  0.460E-03
   1.540  0.383E-03  0.383E-03
   1.555  0.313E-03  0.313E-03
   1.570  0.251E-03  0.251E-03
   1.585  0.198E-03  0.198E-03
   1.600  0.153E-03  0.153E-03
   1.615  0.116E-03  0.116E-03
   1.630  0.863E-04  0.863E-04
   1.645  0.629E-04  0.629E-04
   1.660  0.450E-04  0.450E-04
   1.675  0.315E-04  0.315E-04
   1.690  0.216E-04  0.216E-04
   1.705  0.146E-04  0.146E-04
   1.720  0.960E-05  0.960E-05
   1.735  0.620E-05  0.620E-05
   1.750  0.392E-05  0.392E-05
   1.765  0.243E-05  0.243E-05
   1.780  0.147E-05  0.147E-05
   1.795  0.875E-06  0.875E-06
   1.810  0.509E-06  0.509E-06
   1.825  0.289E-06  0.289E-06
   1.840  0.161E-06  0.161E-06
   1.855  0.879E-07  0.879E-07
   1.870  0.469E-07  0.469E-07
   1.885  0.245E-07  0.245E-07
   1.900  0.125E-07  0.125E-07
   1.915  0.625E-08  0.625E-08
   1.930  0.306E-08  0.306E-08
   1.945  0.146E-08  0.146E-08
   1.960  0.683E-09  0.683E-09
   1.975  0.313E-09  0.313E-09
   1.990  0.140E-09  0.140E-09
   2.005  0.611E-10  0.611E-10
   2.020  0.261E-10  0.261E-10
   2.035  0.109E-10  0.109E-10
   2.050  0.447E-11  0.447E-11
   2.065  0.179E-11  0.179E-11
   2.080  0.722E-12  0.722E-12
   2.095  0.343E-12  0.343E-12
   2.110  0.319E-12  0.319E-12
   2.125  0.648E-12  0.648E-12
   2.140  0.167E-11  0.167E-11
   2.155  0.438E-11  0.438E-11
   2.170  0.113E-10  0.113E-10
   2.185  0.284E-10  0.284E-10
   2.200  0.699E-10  0.699E-10
   2.215  0.168E-09  0.168E-09
   2.230  0.393E-09  0.393E-09
   2.245  0.900E-09  0.900E-09
   2.260  0.201E-08  0.201E-08
   2.275  0.439E-08  0.439E-08
   2.290  0.935E-08  0.935E-08
   2.305  0.195E-07  0.195E-07
   2.320  0.396E-07  0.396E-07
   2.335  0.786E-07  0.786E-07
   2.350  0.152E-06  0.152E-06
   2.365  0.288E-06  0.288E-06
   2.380  0.533E-06  0.533E-06
   2.395  0.964E-06  0.964E-06
   2.410  0.170E-05  0.170E-05
   2.425  0.293E-05  0.293E-05
   2.440  0.495E-05  0.495E-05
   2.455  0.814E-05  0.814E-05
   2.470  0.131E-04  0.131E-04
   2.485  0.206E-04  0.206E-04
   2.500  0.317E-04  0.317E-04
   2.515  0.476E-04  0.476E-04
   2.530  0.699E-04  0.699E-04
   2.545  0.100E-03  0.100E-03
   2.560  0.141E-03  0.141E-03
   2.575  0.194E-03  0.194E-03
   2.590  0.261E-03  0.261E-03
   2.605  0.344E-03  0.344E-03
   2.620  0.444E-03  0.444E-03
   2.635  0.562E-03  0.562E-03
   2.650  0.697E-03  0.697E-03
   2.665  0.849E-03  0.849E-03
   2.680  0.102E-02  0.102E-02
   2.695  0.120E-02  0.120E-02
   2.710  0.139E-02  0.139E-02
   2.725  0.159E-02  0.159E-02
   2.740  0.181E-02  0.181E-02
   2.755  0.204E-02  0.204E-02
   2.770  0.229E-02  0.229E-02
   2.785  0.256E-02  0.256E-02
   2.800  0.286E-02  0.286E-02
   2.815  0.321E-02  0.321E-02
   2.830  0.361E-02  0.361E-02
   2.845  0.406E-02  0.406E-02
   2.860  0.458E-02  0.458E-02
   2.875  0.517E-02  0.517E-02
   2.890  0.582E-02  0.582E-02
   2.905  0.652E-02  0.652E-02
   2.920  0.726E-02  0.726E-02
   2.935  0.802E-02  0.802E-02
   2.950  0.879E-02  0.879E-02
   2.965  0.953E-02  0.953E-02
   2.980  0.102E-01  0.102E-01
   2.995  0.109E-01  0.109E-01
   3.010  0.114E-01  0.114E-01
   3.025  0.119E-01  0.119E-01
   3.040  0.123E-01  0.123E-01
   3.055  0.126E-01  0.126E-01
   3.070  0.128E-01  0.128E-01
   3.085  0.129E-01  0.129E-01
   3.100  0.130E-01  0.130E-01
   3.115  0.130E-01  0.130E-01
   3.130  0.129E-01  0.129E-01
   3.145  0.127E-01  0.127E-01
   3.160  0.125E-01  0.125E-01
   3.175  0.122E-01  0.122E-01
   3.190  0.119E-01  0.119E-01
   3.205  0.115E-01  0.115E-01
   3.220  0.110E-01  0.110E-01
   3.235  0.106E-01  0.106E-01
   3.250  0.101E-01  0.101E-01
   3.265  0.954E-02  0.954E-02
   3.280  0.902E-02  0.902E-02
   3.295  0.851E-02  0.851E-02
   3.310  0.803E-02  0.803E-02
   3.325  0.757E-02  0.757E-02
   3.340  0.715E-02  0.715E-02
   3.355  0.678E-02  0.678E-02
   3.370  0.645E-02  0.645E-02
   3.385  0.616E-02  0.616E-02
   3.400  0.591E-02  0.591E-02
   3.415  0.571E-02  0.571E-02
   3.430  0.556E-02  0.556E-02
   3.445  0.545E-02  0.545E-02
   3.460  0.539E-02  0.539E-02
   3.475  0.537E-02  0.537E-02
   3.490  0.541E-02  0.541E-02
   3.505  0.550E-02  0.550E-02
   3.520  0.564E-02  0.564E-02
   3.535  0.583E-02  0.583E-02
   3.550  0.607E-02  0.607E-02
   3.565  0.636E-02  0.636E-02
   3.580  0.668E-02  0.668E-02
   3.595  0.702E-02  0.702E-02
   3.610  0.738E-02  0.738E-02
   3.625  0.772E-02  0.772E-02
   3.640  0.805E-02  0.805E-02
   3.655  0.833E-02  0.833E-02
   3.670  0.856E-02  0.856E-02
   3.685  0.871E-02  0.871E-02
   3.700  0.878E-02  0.878E-02
   3.715  0.877E-02  0.877E-02
   3.730  0.867E-02  0.867E-02
   3.745  0.849E-02  0.849E-02
   3.760  0.824E-02  0.824E-02
   3.775  0.793E-02  0.793E-02
   3.790  0.758E-02  0.758E-02
   3.805  0.720E-02  0.720E-02
   3.820  0.681E-02  0.681E-02
   3.835  0.642E-02  0.642E-02
   3.850  0.604E-02  0.604E-02
   3.865  0.569E-02  0.569E-02
   3.880  0.537E-02  0.537E-02
   3.895  0.508E-02  0.508E-02
   3.910  0.483E-02  0.483E-02
   3.925  0.462E-02  0.462E-02
   3.940  0.444E-02  0.444E-02
   3.955  0.429E-02  0.429E-02
   3.970  0.418E-02  0.418E-02
   3.985  0.410E-02  0.410E-02
   4.000  0.405E-02  0.405E-02
   4.015  0.403E-02  0.403E-02
   4.030  0.403E-02  0.403E-02
   4.045  0.405E-02  0.405E-02
   4.060  0.409E-02  0.409E-02
   4.075  0.415E-02  0.415E-02
   4.090  0.422E-02  0.422E-02
   4.105  0.431E-02  0.431E-02
   4.120  0.441E-02  0.441E-02
   4.135  0.451E-02  0.451E-02
   4.150  0.463E-02  0.463E-02
   4.165  0.477E-02  0.477E-02
   4.180  0.492E-02  0.492E-02
   4.195  0.508E-02  0.508E-02
   4.210  0.526E-02  0.526E-02
   4.225  0.544E-02  0.544E-02
   4.240  0.563E-02  0.563E-02
   4.255  0.581E-02  0.581E-02
   4.270  0.598E-02  0.598E-02
   4.285  0.611E-02  0.611E-02
   4.300  0.621E-02  0.621E-02
   4.315  0.625E-02  0.625E-02
   4.330  0.623E-02  0.623E-02
   4.345  0.614E-02  0.614E-02
   4.360  0.598E-02  0.598E-02
   4.375  0.576E-02  0.576E-02
   4.390  0.548E-02  0.548E-02
   4.405  0.515E-02  0.515E-02
   4.420  0.478E-02  0.478E-02
   4.435  0.440E-02  0.440E-02
   4.450  0.401E-02  0.401E-02
   4.465  0.363E-02  0.363E-02
   4.480  0.326E-02  0.326E-02
   4.495  0.293E-02  0.293E-02
   4.510  0.262E-02  0.262E-02
   4.525  0.235E-02  0.235E-02
   4.540  0.212E-02  0.212E-02
   4.555  0.192E-02  0.192E-02
   4.570  0.175E-02  0.175E-02
   4.585  0.160E-02  0.160E-02
   4.600  0.148E-02  0.148E-02
   4.615  0.138E-02  0.138E-02
   4.630  0.129E-02  0.129E-02
   4.645  0.122E-02  0.122E-02
   4.660  0.115E-02  0.115E-02
   4.675  0.109E-02  0.109E-02
   4.690  0.103E-02  0.103E-02
   4.705  0.967E-03  0.967E-03
   4.720  0.911E-03  0.911E-03
   4.735  0.857E-03  0.857E-03
   4.750  0.807E-03  0.807E-03
   4.765  0.760E-03  0.760E-03
   4.780  0.720E-03  0.720E-03
   4.795  0.688E-03  0.688E-03
   4.810  0.666E-03  0.666E-03
   4.825  0.655E-03  0.655E-03
   4.840  0.657E-03  0.657E-03
   4.855  0.672E-03  0.672E-03
   4.870  0.700E-03  0.700E-03
   4.885  0.740E-03  0.740E-03
   4.900  0.793E-03  0.793E-03
   4.915  0.856E-03  0.856E-03
   4.930  0.928E-03  0.928E-03
   4.945  0.101E-02  0.101E-02
   4.960  0.110E-02  0.110E-02
   4.975  0.119E-02  0.119E-02
   4.990  0.128E-02  0.128E-02
   5.005  0.138E-02  0.138E-02
   5.020  0.149E-02  0.149E-02
   5.035  0.159E-02  0.159E-02
   5.050  0.169E-02  0.169E-02
   5.065  0.180E-02  0.180E-02
   5.080  0.190E-02  0.190E-02
   5.095  0.199E-02  0.199E-02
   5.110  0.208E-02  0.208E-02
   5.125  0.215E-02  0.215E-02
   5.140  0.222E-02  0.222E-02
   5.155  0.227E-02  0.227E-02
   5.170  0.231E-02  0.231E-02
   5.185  0.233E-02  0.233E-02
   5.200  0.234E-02  0.234E-02
   5.215  0.232E-02  0.232E-02
   5.230  0.230E-02  0.230E-02
   5.245  0.225E-02  0.225E-02
   5.260  0.220E-02  0.220E-02
   5.275  0.213E-02  0.213E-02
   5.290  0.206E-02  0.206E-02
   5.305  0.198E-02  0.198E-02
   5.320  0.189E-02  0.189E-02
   5.335  0.180E-02  0.180E-02
   5.350  0.172E-02  0.172E-02
   5.365  0.163E-02  0.163E-02
   5.380  0.154E-02  0.154E-02
   5.395  0.146E-02  0.146E-02
   5.410  0.138E-02  0.138E-02
   5.425  0.130E-02  0.130E-02
   5.440  0.123E-02  0.123E-02
   5.455  0.116E-02  0.116E-02
   5.470  0.109E-02  0.109E-02
   5.485  0.103E-02  0.103E-02
   5.500  0.977E-03  0.977E-03
   5.515  0.925E-03  0.925E-03
   5.530  0.876E-03  0.876E-03
   5.545  0.830E-03  0.830E-03
   5.560  0.787E-03  0.787E-03
   5.575  0.747E-03  0.747E-03
   5.590  0.708E-03  0.708E-03
   5.605  0.672E-03  0.672E-03
   5.620  0.636E-03  0.636E-03
   5.635  0.602E-03  0.602E-03
   5.650  0.568E-03  0.568E-03
   5.665  0.535E-03  0.535E-03
   5.680  0.503E-03  0.503E-03
   5.695  0.470E-03  0.470E-03
   5.710  0.439E-03  0.439E-03
   5.725  0.407E-03  0.407E-03
   5.740  0.377E-03  0.377E-03
   5.755  0.347E-03  0.347E-03
   5.770  0.318E-03  0.318E-03
   5.785  0.290E-03  0.290E-03
   5.800  0.263E-03  0.263E-03
   5.815  0.237E-03  0.237E-03
   5.830  0.212E-03  0.212E-03
   5.845  0.189E-03  0.189E-03
   5.860  0.167E-03  0.167E-03
   5.875  0.146E-03  0.146E-03
   5.890  0.127E-03  0.127E-03
   5.905  0.109E-03  0.109E-03
   5.920  0.925E-04  0.925E-04
   5.935  0.777E-04  0.777E-04
   5.950  0.644E-04  0.644E-04
   5.965  0.526E-04  0.526E-04
   5.980  0.424E-04  0.424E-04
   5.995  0.336E-04  0.336E-04
   6.010  0.262E-04  0.262E-04
   6.025  0.201E-04  0.201E-04
   6.040  0.152E-04  0.152E-04
   6.055  0.112E-04  0.112E-04
   6.070  0.817E-05  0.817E-05
   6.085  0.583E-05  0.583E-05
   6.100  0.407E-05  0.407E-05
   6.115  0.279E-05  0.279E-05
   6.130  0.188E-05  0.188E-05
   6.145  0.123E-05  0.123E-05
   6.160  0.796E-06  0.796E-06
   6.175  0.502E-06  0.502E-06
   6.190  0.310E-06  0.310E-06
   6.205  0.188E-06  0.188E-06
   6.220  0.111E-06  0.111E-06
   6.235  0.643E-07  0.643E-07
   6.250  0.364E-07  0.364E-07
   6.265  0.201E-07  0.201E-07
   6.280  0.109E-07  0.109E-07
   6.295  0.578E-08  0.578E-08
   6.310  0.299E-08  0.299E-08
   6.325  0.151E-08  0.151E-08
   6.340  0.749E-09  0.749E-09
   6.355  0.362E-09  0.362E-09
   6.370  0.171E-09  0.171E-09
   6.385  0.790E-10  0.790E-10
   6.400  0.357E-10  0.357E-10
   6.415  0.157E-10  0.157E-10
   6.430  0.678E-11  0.678E-11
   6.445  0.285E-11  0.285E-11
   6.460  0.117E-11  0.117E-11
   6.475  0.472E-12  0.472E-12
   6.490  0.185E-12  0.185E-12
   6.505  0.710E-13  0.710E-13
   6.520  0.266E-13  0.266E-13
   6.535  0.963E-14  0.963E-14
   6.550  0.344E-14  0.344E-14
   6.565  0.120E-14  0.120E-14
   6.580  0.395E-15  0.395E-15
   6.595  0.106E-15  0.106E-15
   6.610  0.348E-16  0.348E-16
   6.625  0.692E-30  0.692E-30
   6.640  0.000E+00  0.000E+00
   6.655  0.000E+00  0.000E+00
   6.670  0.000E+00  0.000E+00
   6.685  0.000E+00  0.000E+00
   6.700  0.000E+00  0.000E+00
   6.715  0.000E+00  0.000E+00
   6.730  0.000E+00  0.000E+00
   6.745  0.000E+00  0.000E+00
   6.760  0.000E+00  0.000E+00
   6.775  0.000E+00  0.000E+00
   6.790  0.000E+00  0.000E+00
   6.805  0.000E+00  0.000E+00
   6.820  0.000E+00  0.000E+00
   6.835  0.000E+00  0.000E+00
   6.850  0.000E+00  0.000E+00
   6.865  0.000E+00  0.000E+00
   6.880  0.000E+00  0.000E+00
   6.895  0.000E+00  0.000E+00
   6.910  0.000E+00  0.000E+00
   6.925  0.000E+00  0.000E+00
   6.940  0.000E+00  0.000E+00
   6.955  0.000E+00  0.000E+00
   6.970  0.000E+00  0.000E+00
   6.985  0.000E+00  0.000E+00
   7.000  0.000E+00  0.000E+00
   7.015  0.000E+00  0.000E+00
   7.030  0.000E+00  0.000E+00
   7.045  0.000E+00  0.000E+00
   7.060  0.000E+00  0.000E+00
   7.075  0.000E+00  0.000E+00
   7.090  0.000E+00  0.000E+00
   7.105  0.000E+00  0.000E+00
   7.120  0.000E+00  0.000E+00
   7.135  0.000E+00  0.000E+00
   7.150  0.000E+00  0.000E+00
   7.165  0.000E+00  0.000E+00
   7.180  0.000E+00  0.000E+00
   7.195  0.000E+00  0.000E+00
   7.210  0.000E+00  0.000E+00
   7.225  0.000E+00  0.000E+00
   7.240  0.000E+00  0.000E+00
   7.255  0.000E+00  0.000E+00
   7.270  0.000E+00  0.000E+00
   7.285  0.000E+00  0.000E+00
   7.300  0.000E+00  0.000E+00
   7.315  0.000E+00  0.000E+00
   7.330  0.000E+00  0.000E+00
   7.345  0.000E+00  0.000E+00
   7.360  0.000E+00  0.000E+00
   7.375  0.000E+00  0.000E+00
   7.390  0.000E+00  0.000E+00
   7.405  0.000E+00  0.000E+00
   7.420  0.000E+00  0.000E+00
   7.435  0.000E+00  0.000E+00
   7.450  0.000E+00  0.000E+00
   7.465  0.000E+00  0.000E+00
   7.480  0.000E+00  0.000E+00
   7.495  0.000E+00  0.000E+00
   7.510  0.000E+00  0.000E+00
   7.525  0.000E+00  0.000E+00
   7.540  0.000E+00  0.000E+00
   7.555  0.000E+00  0.000E+00
   7.570  0.000E+00  0.000E+00
   7.585  0.000E+00  0.000E+00
   7.600  0.000E+00  0.000E+00
   7.615  0.000E+00  0.000E+00
   7.630  0.000E+00  0.000E+00
   7.645  0.000E+00  0.000E+00
   7.660  0.000E+00  0.000E+00
   7.675  0.000E+00  0.000E+00
   7.690  0.000E+00  0.000E+00
   7.705  0.000E+00  0.000E+00
   7.720  0.000E+00  0.000E+00
   7.735  0.000E+00  0.000E+00
   7.750  0.000E+00  0.000E+00
   7.765  0.000E+00  0.000E+00
   7.780  0.000E+00  0.000E+00
   7.795  0.000E+00  0.000E+00
   7.810  0.000E+00  0.000E+00
   7.825  0.000E+00  0.000E+00
   7.840  0.000E+00  0.000E+00
   7.855  0.000E+00  0.000E+00
   7.870  0.000E+00  0.000E+00
   7.885  0.000E+00  0.000E+00
   7.900  0.000E+00  0.000E+00
   7.915  0.000E+00  0.000E+00
   7.930  0.000E+00  0.000E+00
   7.945  0.000E+00  0.000E+00
   7.960  0.000E+00  0.000E+00
   7.975  0.000E+00  0.000E+00
   7.990  0.000E+00  0.000E+00
   8.005  0.000E+00  0.000E+00
   8.020  0.000E+00  0.000E+00
   8.035  0.000E+00  0.000E+00
   8.050  0.000E+00  0.000E+00
   8.065  0.000E+00  0.000E+00
   8.080  0.000E+00  0.000E+00
   8.095  0.000E+00  0.000E+00
   8.110  0.000E+00  0.000E+00
   8.125  0.000E+00  0.000E+00
   8.140  0.000E+00  0.000E+00
   8.155  0.000E+00  0.000E+00
   8.170  0.000E+00  0.000E+00
   8.185  0.000E+00  0.000E+00
   8.200  0.000E+00  0.000E+00
   8.215  0.000E+00  0.000E+00
   8.230  0.000E+00  0.000E+00
   8.245  0.000E+00  0.000E+00
   8.260  0.000E+00  0.000E+00
   8.275  0.000E+00  0.000E+00
   8.290  0.000E+00  0.000E+00
   8.305  0.000E+00  0.000E+00
   8.320  0.000E+00  0.000E+00
   8.335  0.000E+00  0.000E+00
   8.350  0.000E+00  0.000E+00
   8.365  0.000E+00  0.000E+00
   8.380  0.000E+00  0.000E+00
   8.395  0.000E+00  0.000E+00
   8.410  0.000E+00  0.000E+00
   8.425  0.000E+00  0.000E+00
   8.440  0.000E+00  0.000E+00
   8.455  0.000E+00  0.000E+00
   8.470  0.000E+00  0.000E+00
   8.485  0.000E+00  0.000E+00
   8.500  0.000E+00  0.000E+00
   8.515  0.000E+00  0.000E+00
   8.530  0.000E+00  0.000E+00
   8.545  0.000E+00  0.000E+00
   8.560  0.000E+00  0.000E+00
   8.575  0.000E+00  0.000E+00
   8.590  0.000E+00  0.000E+00
   8.605  0.000E+00  0.000E+00
   8.620  0.000E+00  0.000E+00
   8.635  0.000E+00  0.000E+00
   8.650  0.000E+00  0.000E+00
   8.665  0.000E+00  0.000E+00
   8.680  0.000E+00  0.000E+00
   8.695  0.000E+00  0.000E+00
   8.710  0.000E+00  0.000E+00
   8.725  0.000E+00  0.000E+00
   8.740  0.000E+00  0.000E+00
   8.755  0.000E+00  0.000E+00
   8.770  0.000E+00  0.000E+00
   8.785  0.000E+00  0.000E+00
   8.800  0.000E+00  0.000E+00
   8.815  0.000E+00  0.000E+00
   8.830  0.000E+00  0.000E+00
   8.845  0.000E+00  0.000E+00
   8.860  0.000E+00  0.000E+00
   8.875  0.000E+00  0.000E+00
   8.890  0.000E+00  0.000E+00
   8.905  0.000E+00  0.000E+00
   8.920  0.000E+00  0.000E+00
   8.935  0.000E+00  0.000E+00
   8.950  0.000E+00  0.000E+00
   8.965  0.000E+00  0.000E+00
   8.980  0.000E+00  0.000E+00
   8.995  0.000E+00  0.000E+00
   9.010  0.000E+00  0.000E+00
   9.025  0.000E+00  0.000E+00
   9.040  0.000E+00  0.000E+00
   9.055  0.000E+00  0.000E+00
   9.070  0.000E+00  0.000E+00
   9.085  0.000E+00  0.000E+00
   9.100  0.000E+00  0.000E+00
   9.115  0.000E+00  0.000E+00
   9.130  0.000E+00  0.000E+00
   9.145  0.000E+00  0.000E+00
   9.160  0.000E+00  0.000E+00
   9.175  0.000E+00  0.000E+00
   9.190  0.000E+00  0.000E+00
   9.205  0.000E+00  0.000E+00
   9.220  0.000E+00  0.000E+00
   9.235  0.000E+00  0.000E+00
   9.250  0.000E+00  0.000E+00
   9.265  0.000E+00  0.000E+00
   9.280  0.000E+00  0.000E+00
   9.295  0.000E+00  0.000E+00
   9.310  0.000E+00  0.000E+00
   9.325  0.000E+00  0.000E+00
   9.340  0.000E+00  0.000E+00
   9.355  0.000E+00  0.000E+00
   9.370  0.000E+00  0.000E+00
   9.385  0.105E-14  0.105E-14
   9.400  0.364E-14  0.364E-14
   9.415  0.109E-13  0.109E-13
   9.430  0.320E-13  0.320E-13
   9.445  0.902E-13  0.902E-13
   9.460  0.248E-12  0.248E-12
   9.475  0.667E-12  0.667E-12
   9.490  0.175E-11  0.175E-11
   9.505  0.448E-11  0.448E-11
   9.520  0.112E-10  0.112E-10
   9.535  0.273E-10  0.273E-10
   9.550  0.650E-10  0.650E-10
   9.565  0.151E-09  0.151E-09
   9.580  0.343E-09  0.343E-09
   9.595  0.761E-09  0.761E-09
   9.610  0.165E-08  0.165E-08
   9.625  0.348E-08  0.348E-08
   9.640  0.718E-08  0.718E-08
   9.655  0.145E-07  0.145E-07
   9.670  0.285E-07  0.285E-07
   9.685  0.547E-07  0.547E-07
   9.700  0.103E-06  0.103E-06
   9.715  0.188E-06  0.188E-06
   9.730  0.336E-06  0.336E-06
   9.745  0.587E-06  0.587E-06
   9.760  0.100E-05  0.100E-05
   9.775  0.167E-05  0.167E-05
   9.790  0.272E-05  0.272E-05
   9.805  0.433E-05  0.433E-05
   9.820  0.673E-05  0.673E-05
   9.835  0.102E-04  0.102E-04
   9.850  0.152E-04  0.152E-04
   9.865  0.220E-04  0.220E-04
   9.880  0.312E-04  0.312E-04
   9.895  0.433E-04  0.433E-04
   9.910  0.587E-04  0.587E-04
   9.925  0.778E-04  0.778E-04
   9.940  0.101E-03  0.101E-03
   9.955  0.128E-03  0.128E-03
   9.970  0.159E-03  0.159E-03
   9.985  0.194E-03  0.194E-03
  10.000  0.232E-03  0.232E-03
  10.015  0.272E-03  0.272E-03
  10.030  0.312E-03  0.312E-03
  10.045  0.353E-03  0.353E-03
  10.060  0.392E-03  0.392E-03
  10.075  0.429E-03  0.429E-03
  10.090  0.463E-03  0.463E-03
  10.105  0.494E-03  0.494E-03
  10.120  0.521E-03  0.521E-03
  10.135  0.545E-03  0.545E-03
  10.150  0.565E-03  0.565E-03
  10.165  0.582E-03  0.582E-03
  10.180  0.597E-03  0.597E-03
  10.195  0.610E-03  0.610E-03
  10.210  0.621E-03  0.621E-03
  10.225  0.631E-03  0.631E-03
  10.240  0.639E-03  0.639E-03
  10.255  0.645E-03  0.645E-03
  10.270  0.650E-03  0.650E-03
  10.285  0.653E-03  0.653E-03
  10.300  0.654E-03  0.654E-03
  10.315  0.654E-03  0.654E-03
  10.330  0.653E-03  0.653E-03
  10.345  0.651E-03  0.651E-03
  10.360  0.649E-03  0.649E-03
  10.375  0.649E-03  0.649E-03
  10.390  0.649E-03  0.649E-03
  10.405  0.652E-03  0.652E-03
  10.420  0.659E-03  0.659E-03
  10.435  0.670E-03  0.670E-03
  10.450  0.687E-03  0.687E-03
  10.465  0.711E-03  0.711E-03
  10.480  0.745E-03  0.745E-03
  10.495  0.790E-03  0.790E-03
  10.510  0.849E-03  0.849E-03
  10.525  0.924E-03  0.924E-03
  10.540  0.102E-02  0.102E-02
  10.555  0.114E-02  0.114E-02
  10.570  0.128E-02  0.128E-02
  10.585  0.145E-02  0.145E-02
  10.600  0.166E-02  0.166E-02
  10.615  0.189E-02  0.189E-02
  10.630  0.216E-02  0.216E-02
  10.645  0.247E-02  0.247E-02
  10.660  0.280E-02  0.280E-02
  10.675  0.316E-02  0.316E-02
  10.690  0.355E-02  0.355E-02
  10.705  0.396E-02  0.396E-02
  10.720  0.438E-02  0.438E-02
  10.735  0.481E-02  0.481E-02
  10.750  0.524E-02  0.524E-02
  10.765  0.566E-02  0.566E-02
  10.780  0.607E-02  0.607E-02
  10.795  0.645E-02  0.645E-02
  10.810  0.681E-02  0.681E-02
  10.825  0.714E-02  0.714E-02
  10.840  0.743E-02  0.743E-02
  10.855  0.769E-02  0.769E-02
  10.870  0.791E-02  0.791E-02
  10.885  0.810E-02  0.810E-02
  10.900  0.825E-02  0.825E-02
  10.915  0.838E-02  0.838E-02
  10.930  0.850E-02  0.850E-02
  10.945  0.861E-02  0.861E-02
  10.960  0.872E-02  0.872E-02
  10.975  0.885E-02  0.885E-02
  10.990  0.900E-02  0.900E-02
  11.005  0.919E-02  0.919E-02
  11.020  0.941E-02  0.941E-02
  11.035  0.967E-02  0.967E-02
  11.050  0.996E-02  0.996E-02
  11.065  0.103E-01  0.103E-01
  11.080  0.106E-01  0.106E-01
  11.095  0.110E-01  0.110E-01
  11.110  0.114E-01  0.114E-01
  11.125  0.118E-01  0.118E-01
  11.140  0.121E-01  0.121E-01
  11.155  0.125E-01  0.125E-01
  11.170  0.128E-01  0.128E-01
  11.185  0.130E-01  0.130E-01
  11.200  0.132E-01  0.132E-01
  11.215  0.134E-01  0.134E-01
  11.230  0.134E-01  0.134E-01
  11.245  0.134E-01  0.134E-01
  11.260  0.132E-01  0.132E-01
  11.275  0.130E-01  0.130E-01
  11.290  0.126E-01  0.126E-01
  11.305  0.122E-01  0.122E-01
  11.320  0.116E-01  0.116E-01
  11.335  0.111E-01  0.111E-01
  11.350  0.104E-01  0.104E-01
  11.365  0.978E-02  0.978E-02
  11.380  0.914E-02  0.914E-02
  11.395  0.853E-02  0.853E-02
  11.410  0.798E-02  0.798E-02
  11.425  0.748E-02  0.748E-02
  11.440  0.706E-02  0.706E-02
  11.455  0.671E-02  0.671E-02
  11.470  0.642E-02  0.642E-02
  11.485  0.618E-02  0.618E-02
  11.500  0.599E-02  0.599E-02
  11.515  0.584E-02  0.584E-02
  11.530  0.570E-02  0.570E-02
  11.545  0.559E-02  0.559E-02
  11.560  0.549E-02  0.549E-02
  11.575  0.542E-02  0.542E-02
  11.590  0.537E-02  0.537E-02
  11.605  0.536E-02  0.536E-02
  11.620  0.540E-02  0.540E-02
  11.635  0.552E-02  0.552E-02
  11.650  0.572E-02  0.572E-02
  11.665  0.602E-02  0.602E-02
  11.680  0.643E-02  0.643E-02
  11.695  0.695E-02  0.695E-02
  11.710  0.758E-02  0.758E-02
  11.725  0.830E-02  0.830E-02
  11.740  0.910E-02  0.910E-02
  11.755  0.996E-02  0.996E-02
  11.770  0.108E-01  0.108E-01
  11.785  0.117E-01  0.117E-01
  11.800  0.126E-01  0.126E-01
  11.815  0.133E-01  0.133E-01
  11.830  0.141E-01  0.141E-01
  11.845  0.147E-01  0.147E-01
  11.860  0.153E-01  0.153E-01
  11.875  0.157E-01  0.157E-01
  11.890  0.161E-01  0.161E-01
  11.905  0.165E-01  0.165E-01
  11.920  0.168E-01  0.168E-01
  11.935  0.171E-01  0.171E-01
  11.950  0.174E-01  0.174E-01
  11.965  0.176E-01  0.176E-01
  11.980  0.178E-01  0.178E-01
  11.995  0.180E-01  0.180E-01
  12.010  0.182E-01  0.182E-01
  12.025  0.183E-01  0.183E-01
  12.040  0.184E-01  0.184E-01
  12.055  0.184E-01  0.184E-01
  12.070  0.185E-01  0.185E-01
  12.085  0.185E-01  0.185E-01
  12.100  0.186E-01  0.186E-01
  12.115  0.188E-01  0.188E-01
  12.130  0.190E-01  0.190E-01
  12.145  0.194E-01  0.194E-01
  12.160  0.198E-01  0.198E-01
  12.175  0.203E-01  0.203E-01
  12.190  0.210E-01  0.210E-01
  12.205  0.218E-01  0.218E-01
  12.220  0.227E-01  0.227E-01
  12.235  0.238E-01  0.238E-01
  12.250  0.250E-01  0.250E-01
  12.265  0.265E-01  0.265E-01
  12.280  0.281E-01  0.281E-01
  12.295  0.300E-01  0.300E-01
  12.310  0.321E-01  0.321E-01
  12.325  0.344E-01  0.344E-01
  12.340  0.368E-01  0.368E-01
  12.355  0.393E-01  0.393E-01
  12.370  0.419E-01  0.419E-01
  12.385  0.443E-01  0.443E-01
  12.400  0.466E-01  0.466E-01
  12.415  0.486E-01  0.486E-01
  12.430  0.503E-01  0.503E-01
  12.445  0.515E-01  0.515E-01
  12.460  0.523E-01  0.523E-01
  12.475  0.526E-01  0.526E-01
  12.490  0.525E-01  0.525E-01
  12.505  0.520E-01  0.520E-01
  12.520  0.512E-01  0.512E-01
  12.535  0.502E-01  0.502E-01
  12.550  0.490E-01  0.490E-01
  12.565  0.479E-01  0.479E-01
  12.580  0.467E-01  0.467E-01
  12.595  0.456E-01  0.456E-01
  12.610  0.446E-01  0.446E-01
  12.625  0.438E-01  0.438E-01
  12.640  0.430E-01  0.430E-01
  12.655  0.422E-01  0.422E-01
  12.670  0.415E-01  0.415E-01
  12.685  0.407E-01  0.407E-01
  12.700  0.399E-01  0.399E-01
  12.715  0.391E-01  0.391E-01
  12.730  0.382E-01  0.382E-01
  12.745  0.373E-01  0.373E-01
  12.760  0.364E-01  0.364E-01
  12.775  0.356E-01  0.356E-01
  12.790  0.350E-01  0.350E-01
  12.805  0.346E-01  0.346E-01
  12.820  0.345E-01  0.345E-01
  12.835  0.347E-01  0.347E-01
  12.850  0.352E-01  0.352E-01
  12.865  0.360E-01  0.360E-01
  12.880  0.371E-01  0.371E-01
  12.895  0.384E-01  0.384E-01
  12.910  0.398E-01  0.398E-01
  12.925  0.413E-01  0.413E-01
  12.940  0.428E-01  0.428E-01
  12.955  0.444E-01  0.444E-01
  12.970  0.459E-01  0.459E-01
  12.985  0.473E-01  0.473E-01
  13.000  0.488E-01  0.488E-01
  13.015  0.502E-01  0.502E-01
  13.030  0.516E-01  0.516E-01
  13.045  0.531E-01  0.531E-01
  13.060  0.546E-01  0.546E-01
  13.075  0.562E-01  0.562E-01
  13.090  0.578E-01  0.578E-01
  13.105  0.594E-01  0.594E-01
  13.120  0.610E-01  0.610E-01
  13.135  0.625E-01  0.625E-01
  13.150  0.640E-01  0.640E-01
  13.165  0.654E-01  0.654E-01
  13.180  0.666E-01  0.666E-01
  13.195  0.677E-01  0.677E-01
  13.210  0.686E-01  0.686E-01
  13.225  0.693E-01  0.693E-01
  13.240  0.700E-01  0.700E-01
  13.255  0.705E-01  0.705E-01
  13.270  0.710E-01  0.710E-01
  13.285  0.714E-01  0.714E-01
  13.300  0.718E-01  0.718E-01
  13.315  0.724E-01  0.724E-01
  13.330  0.730E-01  0.730E-01
  13.345  0.738E-01  0.738E-01
  13.360  0.747E-01  0.747E-01
  13.375  0.758E-01  0.758E-01
  13.390  0.769E-01  0.769E-01
  13.405  0.781E-01  0.781E-01
  13.420  0.792E-01  0.792E-01
  13.435  0.801E-01  0.801E-01
  13.450  0.806E-01  0.806E-01
  13.465  0.807E-01  0.807E-01
  13.480  0.803E-01  0.803E-01
  13.495  0.793E-01  0.793E-01
  13.510  0.777E-01  0.777E-01
  13.525  0.755E-01  0.755E-01
  13.540  0.727E-01  0.727E-01
  13.555  0.696E-01  0.696E-01
  13.570  0.663E-01  0.663E-01
  13.585  0.630E-01  0.630E-01
  13.600  0.597E-01  0.597E-01
  13.615  0.567E-01  0.567E-01
  13.630  0.542E-01  0.542E-01
  13.645  0.521E-01  0.521E-01
  13.660  0.505E-01  0.505E-01
  13.675  0.493E-01  0.493E-01
  13.690  0.487E-01  0.487E-01
  13.705  0.483E-01  0.483E-01
  13.720  0.482E-01  0.482E-01
  13.735  0.482E-01  0.482E-01
  13.750  0.482E-01  0.482E-01
  13.765  0.480E-01  0.480E-01
  13.780  0.477E-01  0.477E-01
  13.795  0.472E-01  0.472E-01
  13.810  0.464E-01  0.464E-01
  13.825  0.453E-01  0.453E-01
  13.840  0.439E-01  0.439E-01
  13.855  0.423E-01  0.423E-01
  13.870  0.405E-01  0.405E-01
  13.885  0.385E-01  0.385E-01
  13.900  0.364E-01  0.364E-01
  13.915  0.342E-01  0.342E-01
  13.930  0.321E-01  0.321E-01
  13.945  0.300E-01  0.300E-01
  13.960  0.280E-01  0.280E-01
  13.975  0.262E-01  0.262E-01
  13.990  0.247E-01  0.247E-01
  14.005  0.234E-01  0.234E-01
  14.020  0.224E-01  0.224E-01
  14.035  0.217E-01  0.217E-01
  14.050  0.213E-01  0.213E-01
  14.065  0.213E-01  0.213E-01
  14.080  0.217E-01  0.217E-01
  14.095  0.223E-01  0.223E-01
  14.110  0.231E-01  0.231E-01
  14.125  0.242E-01  0.242E-01
  14.140  0.255E-01  0.255E-01
  14.155  0.270E-01  0.270E-01
  14.170  0.285E-01  0.285E-01
  14.185  0.301E-01  0.301E-01
  14.200  0.317E-01  0.317E-01
  14.215  0.334E-01  0.334E-01
  14.230  0.351E-01  0.351E-01
  14.245  0.368E-01  0.368E-01
  14.260  0.385E-01  0.385E-01
  14.275  0.402E-01  0.402E-01
  14.290  0.419E-01  0.419E-01
  14.305  0.437E-01  0.437E-01
  14.320  0.454E-01  0.454E-01
  14.335  0.470E-01  0.470E-01
  14.350  0.486E-01  0.486E-01
  14.365  0.501E-01  0.501E-01
  14.380  0.513E-01  0.513E-01
  14.395  0.523E-01  0.523E-01
  14.410  0.530E-01  0.530E-01
  14.425  0.533E-01  0.533E-01
  14.440  0.532E-01  0.532E-01
  14.455  0.527E-01  0.527E-01
  14.470  0.517E-01  0.517E-01
  14.485  0.503E-01  0.503E-01
  14.500  0.485E-01  0.485E-01
  14.515  0.463E-01  0.463E-01
  14.530  0.438E-01  0.438E-01
  14.545  0.412E-01  0.412E-01
  14.560  0.385E-01  0.385E-01
  14.575  0.357E-01  0.357E-01
  14.590  0.330E-01  0.330E-01
  14.605  0.305E-01  0.305E-01
  14.620  0.282E-01  0.282E-01
  14.635  0.261E-01  0.261E-01
  14.650  0.243E-01  0.243E-01
  14.665  0.227E-01  0.227E-01
  14.680  0.214E-01  0.214E-01
  14.695  0.203E-01  0.203E-01
  14.710  0.195E-01  0.195E-01
  14.725  0.187E-01  0.187E-01
  14.740  0.182E-01  0.182E-01
  14.755  0.177E-01  0.177E-01
  14.770  0.173E-01  0.173E-01
  14.785  0.169E-01  0.169E-01
  14.800  0.166E-01  0.166E-01
  14.815  0.163E-01  0.163E-01
  14.830  0.159E-01  0.159E-01
  14.845  0.156E-01  0.156E-01
  14.860  0.152E-01  0.152E-01
  14.875  0.148E-01  0.148E-01
  14.890  0.143E-01  0.143E-01
  14.905  0.139E-01  0.139E-01
  14.920  0.134E-01  0.134E-01
  14.935  0.129E-01  0.129E-01
  14.950  0.124E-01  0.124E-01
  14.965  0.119E-01  0.119E-01
  14.980  0.114E-01  0.114E-01
  14.995  0.109E-01  0.109E-01
  15.010  0.105E-01  0.105E-01
  15.025  0.100E-01  0.100E-01
  15.040  0.966E-02  0.966E-02
  15.055  0.932E-02  0.932E-02
  15.070  0.903E-02  0.903E-02
  15.085  0.879E-02  0.879E-02
  15.100  0.859E-02  0.859E-02
  15.115  0.843E-02  0.843E-02
  15.130  0.830E-02  0.830E-02
  15.145  0.819E-02  0.819E-02
  15.160  0.810E-02  0.810E-02
  15.175  0.802E-02  0.802E-02
  15.190  0.794E-02  0.794E-02
  15.205  0.787E-02  0.787E-02
  15.220  0.781E-02  0.781E-02
  15.235  0.777E-02  0.777E-02
  15.250  0.777E-02  0.777E-02
  15.265  0.781E-02  0.781E-02
  15.280  0.791E-02  0.791E-02
  15.295  0.807E-02  0.807E-02
  15.310  0.830E-02  0.830E-02
  15.325  0.859E-02  0.859E-02
  15.340  0.893E-02  0.893E-02
  15.355  0.930E-02  0.930E-02
  15.370  0.968E-02  0.968E-02
  15.385  0.101E-01  0.101E-01
  15.400  0.104E-01  0.104E-01
  15.415  0.107E-01  0.107E-01
  15.430  0.110E-01  0.110E-01
  15.445  0.112E-01  0.112E-01
  15.460  0.113E-01  0.113E-01
  15.475  0.114E-01  0.114E-01
  15.490  0.114E-01  0.114E-01
  15.505  0.114E-01  0.114E-01
  15.520  0.114E-01  0.114E-01
  15.535  0.114E-01  0.114E-01
  15.550  0.115E-01  0.115E-01
  15.565  0.116E-01  0.116E-01
  15.580  0.117E-01  0.117E-01
  15.595  0.118E-01  0.118E-01
  15.610  0.120E-01  0.120E-01
  15.625  0.123E-01  0.123E-01
  15.640  0.125E-01  0.125E-01
  15.655  0.127E-01  0.127E-01
  15.670  0.129E-01  0.129E-01
  15.685  0.130E-01  0.130E-01
  15.700  0.131E-01  0.131E-01
  15.715  0.131E-01  0.131E-01
  15.730  0.131E-01  0.131E-01
  15.745  0.130E-01  0.130E-01
  15.760  0.129E-01  0.129E-01
  15.775  0.127E-01  0.127E-01
  15.790  0.126E-01  0.126E-01
  15.805  0.124E-01  0.124E-01
  15.820  0.123E-01  0.123E-01
  15.835  0.123E-01  0.123E-01
  15.850  0.123E-01  0.123E-01
  15.865  0.123E-01  0.123E-01
  15.880  0.124E-01  0.124E-01
  15.895  0.125E-01  0.125E-01
  15.910  0.127E-01  0.127E-01
  15.925  0.129E-01  0.129E-01
  15.940  0.132E-01  0.132E-01
  15.955  0.134E-01  0.134E-01
  15.970  0.136E-01  0.136E-01
  15.985  0.138E-01  0.138E-01
  16.000  0.139E-01  0.139E-01
  16.015  0.140E-01  0.140E-01
  16.030  0.140E-01  0.140E-01
  16.045  0.139E-01  0.139E-01
  16.060  0.138E-01  0.138E-01
  16.075  0.137E-01  0.137E-01
  16.090  0.135E-01  0.135E-01
  16.105  0.134E-01  0.134E-01
  16.120  0.133E-01  0.133E-01
  16.135  0.132E-01  0.132E-01
  16.150  0.133E-01  0.133E-01
  16.165  0.134E-01  0.134E-01
  16.180  0.137E-01  0.137E-01
  16.195  0.142E-01  0.142E-01
  16.210  0.147E-01  0.147E-01
  16.225  0.153E-01  0.153E-01
  16.240  0.160E-01  0.160E-01
  16.255  0.168E-01  0.168E-01
  16.270  0.175E-01  0.175E-01
  16.285  0.183E-01  0.183E-01
  16.300  0.189E-01  0.189E-01
  16.315  0.195E-01  0.195E-01
  16.330  0.200E-01  0.200E-01
  16.345  0.203E-01  0.203E-01
  16.360  0.205E-01  0.205E-01
  16.375  0.206E-01  0.206E-01
  16.390  0.206E-01  0.206E-01
  16.405  0.205E-01  0.205E-01
  16.420  0.204E-01  0.204E-01
  16.435  0.202E-01  0.202E-01
  16.450  0.199E-01  0.199E-01
  16.465  0.197E-01  0.197E-01
  16.480  0.194E-01  0.194E-01
  16.495  0.192E-01  0.192E-01
  16.510  0.190E-01  0.190E-01
  16.525  0.188E-01  0.188E-01
  16.540  0.186E-01  0.186E-01
  16.555  0.185E-01  0.185E-01
  16.570  0.185E-01  0.185E-01
  16.585  0.184E-01  0.184E-01
  16.600  0.185E-01  0.185E-01
  16.615  0.185E-01  0.185E-01
  16.630  0.186E-01  0.186E-01
  16.645  0.187E-01  0.187E-01
  16.660  0.188E-01  0.188E-01
  16.675  0.190E-01  0.190E-01
  16.690  0.192E-01  0.192E-01
  16.705  0.196E-01  0.196E-01
  16.720  0.200E-01  0.200E-01
  16.735  0.205E-01  0.205E-01
  16.750  0.211E-01  0.211E-01
  16.765  0.218E-01  0.218E-01
  16.780  0.227E-01  0.227E-01
  16.795  0.236E-01  0.236E-01
  16.810  0.246E-01  0.246E-01
  16.825  0.257E-01  0.257E-01
  16.840  0.267E-01  0.267E-01
  16.855  0.276E-01  0.276E-01
  16.870  0.284E-01  0.284E-01
  16.885  0.291E-01  0.291E-01
  16.900  0.295E-01  0.295E-01
  16.915  0.298E-01  0.298E-01
  16.930  0.298E-01  0.298E-01
  16.945  0.296E-01  0.296E-01
  16.960  0.293E-01  0.293E-01
  16.975  0.287E-01  0.287E-01
  16.990  0.281E-01  0.281E-01
  17.005  0.275E-01  0.275E-01
  17.020  0.269E-01  0.269E-01
  17.035  0.263E-01  0.263E-01
  17.050  0.259E-01  0.259E-01
  17.065  0.256E-01  0.256E-01
  17.080  0.254E-01  0.254E-01
  17.095  0.254E-01  0.254E-01
  17.110  0.256E-01  0.256E-01
  17.125  0.259E-01  0.259E-01
  17.140  0.264E-01  0.264E-01
  17.155  0.269E-01  0.269E-01
  17.170  0.275E-01  0.275E-01
  17.185  0.281E-01  0.281E-01
  17.200  0.287E-01  0.287E-01
  17.215  0.292E-01  0.292E-01
  17.230  0.296E-01  0.296E-01
  17.245  0.298E-01  0.298E-01
  17.260  0.298E-01  0.298E-01
  17.275  0.297E-01  0.297E-01
  17.290  0.292E-01  0.292E-01
  17.305  0.286E-01  0.286E-01
  17.320  0.278E-01  0.278E-01
  17.335  0.268E-01  0.268E-01
  17.350  0.257E-01  0.257E-01
  17.365  0.245E-01  0.245E-01
  17.380  0.232E-01  0.232E-01
  17.395  0.220E-01  0.220E-01
  17.410  0.207E-01  0.207E-01
  17.425  0.195E-01  0.195E-01
  17.440  0.184E-01  0.184E-01
  17.455  0.173E-01  0.173E-01
  17.470  0.163E-01  0.163E-01
  17.485  0.154E-01  0.154E-01
  17.500  0.146E-01  0.146E-01
  17.515  0.139E-01  0.139E-01
  17.530  0.132E-01  0.132E-01
  17.545  0.126E-01  0.126E-01
  17.560  0.120E-01  0.120E-01
  17.575  0.115E-01  0.115E-01
  17.590  0.111E-01  0.111E-01
  17.605  0.106E-01  0.106E-01
  17.620  0.102E-01  0.102E-01
  17.635  0.984E-02  0.984E-02
  17.650  0.948E-02  0.948E-02
  17.665  0.913E-02  0.913E-02
  17.680  0.879E-02  0.879E-02
  17.695  0.846E-02  0.846E-02
  17.710  0.814E-02  0.814E-02
  17.725  0.783E-02  0.783E-02
  17.740  0.754E-02  0.754E-02
  17.755  0.727E-02  0.727E-02
  17.770  0.701E-02  0.701E-02
  17.785  0.679E-02  0.679E-02
  17.800  0.659E-02  0.659E-02
  17.815  0.642E-02  0.642E-02
  17.830  0.629E-02  0.629E-02
  17.845  0.620E-02  0.620E-02
  17.860  0.615E-02  0.615E-02
  17.875  0.613E-02  0.613E-02
  17.890  0.616E-02  0.616E-02
  17.905  0.623E-02  0.623E-02
  17.920  0.633E-02  0.633E-02
  17.935  0.646E-02  0.646E-02
  17.950  0.662E-02  0.662E-02
  17.965  0.678E-02  0.678E-02
  17.980  0.696E-02  0.696E-02
  17.995  0.714E-02  0.714E-02
  18.010  0.730E-02  0.730E-02
  18.025  0.745E-02  0.745E-02
  18.040  0.757E-02  0.757E-02
  18.055  0.766E-02  0.766E-02
  18.070  0.772E-02  0.772E-02
  18.085  0.775E-02  0.775E-02
  18.100  0.774E-02  0.774E-02
  18.115  0.770E-02  0.770E-02
  18.130  0.763E-02  0.763E-02
  18.145  0.752E-02  0.752E-02
  18.160  0.739E-02  0.739E-02
  18.175  0.724E-02  0.724E-02
  18.190  0.707E-02  0.707E-02
  18.205  0.689E-02  0.689E-02
  18.220  0.671E-02  0.671E-02
  18.235  0.654E-02  0.654E-02
  18.250  0.638E-02  0.638E-02
  18.265  0.625E-02  0.625E-02
  18.280  0.614E-02  0.614E-02
  18.295  0.606E-02  0.606E-02
  18.310  0.602E-02  0.602E-02
  18.325  0.602E-02  0.602E-02
  18.340  0.605E-02  0.605E-02
  18.355  0.611E-02  0.611E-02
  18.370  0.619E-02  0.619E-02
  18.385  0.629E-02  0.629E-02
  18.400  0.640E-02  0.640E-02
  18.415  0.650E-02  0.650E-02
  18.430  0.659E-02  0.659E-02
  18.445  0.665E-02  0.665E-02
  18.460  0.669E-02  0.669E-02
  18.475  0.669E-02  0.669E-02
  18.490  0.665E-02  0.665E-02
  18.505  0.658E-02  0.658E-02
  18.520  0.647E-02  0.647E-02
  18.535  0.633E-02  0.633E-02
  18.550  0.617E-02  0.617E-02
  18.565  0.599E-02  0.599E-02
  18.580  0.580E-02  0.580E-02
  18.595  0.563E-02  0.563E-02
  18.610  0.547E-02  0.547E-02
  18.625  0.533E-02  0.533E-02
  18.640  0.524E-02  0.524E-02
  18.655  0.520E-02  0.520E-02
  18.670  0.522E-02  0.522E-02
  18.685  0.530E-02  0.530E-02
  18.700  0.547E-02  0.547E-02
  18.715  0.571E-02  0.571E-02
  18.730  0.603E-02  0.603E-02
  18.745  0.643E-02  0.643E-02
  18.760  0.689E-02  0.689E-02
  18.775  0.741E-02  0.741E-02
  18.790  0.797E-02  0.797E-02
  18.805  0.855E-02  0.855E-02
  18.820  0.913E-02  0.913E-02
  18.835  0.969E-02  0.969E-02
  18.850  0.102E-01  0.102E-01
  18.865  0.107E-01  0.107E-01
  18.880  0.111E-01  0.111E-01
  18.895  0.115E-01  0.115E-01
  18.910  0.117E-01  0.117E-01
  18.925  0.119E-01  0.119E-01
  18.940  0.120E-01  0.120E-01
  18.955  0.120E-01  0.120E-01
  18.970  0.119E-01  0.119E-01
  18.985  0.118E-01  0.118E-01
  19.000  0.116E-01  0.116E-01
  19.015  0.114E-01  0.114E-01
  19.030  0.112E-01  0.112E-01
  19.045  0.109E-01  0.109E-01
  19.060  0.107E-01  0.107E-01
  19.075  0.104E-01  0.104E-01
  19.090  0.103E-01  0.103E-01
  19.105  0.101E-01  0.101E-01
  19.120  0.995E-02  0.995E-02
  19.135  0.984E-02  0.984E-02
  19.150  0.977E-02  0.977E-02
  19.165  0.971E-02  0.971E-02
  19.180  0.967E-02  0.967E-02
  19.195  0.965E-02  0.965E-02
  19.210  0.963E-02  0.963E-02
  19.225  0.962E-02  0.962E-02
  19.240  0.962E-02  0.962E-02
  19.255  0.961E-02  0.961E-02
  19.270  0.960E-02  0.960E-02
  19.285  0.959E-02  0.959E-02
  19.300  0.957E-02  0.957E-02
  19.315  0.955E-02  0.955E-02
  19.330  0.952E-02  0.952E-02
  19.345  0.948E-02  0.948E-02
  19.360  0.944E-02  0.944E-02
  19.375  0.941E-02  0.941E-02
  19.390  0.937E-02  0.937E-02
  19.405  0.935E-02  0.935E-02
  19.420  0.933E-02  0.933E-02
  19.435  0.933E-02  0.933E-02
  19.450  0.933E-02  0.933E-02
  19.465  0.933E-02  0.933E-02
  19.480  0.934E-02  0.934E-02
  19.495  0.933E-02  0.933E-02
  19.510  0.932E-02  0.932E-02
  19.525  0.928E-02  0.928E-02
  19.540  0.921E-02  0.921E-02
  19.555  0.910E-02  0.910E-02
  19.570  0.897E-02  0.897E-02
  19.585  0.880E-02  0.880E-02
  19.600  0.860E-02  0.860E-02
  19.615  0.838E-02  0.838E-02
  19.630  0.816E-02  0.816E-02
  19.645  0.793E-02  0.793E-02
  19.660  0.771E-02  0.771E-02
  19.675  0.752E-02  0.752E-02
  19.690  0.737E-02  0.737E-02
  19.705  0.725E-02  0.725E-02
  19.720  0.720E-02  0.720E-02
  19.735  0.719E-02  0.719E-02
  19.750  0.725E-02  0.725E-02
  19.765  0.736E-02  0.736E-02
  19.780  0.752E-02  0.752E-02
  19.795  0.772E-02  0.772E-02
  19.810  0.796E-02  0.796E-02
  19.825  0.821E-02  0.821E-02
  19.840  0.848E-02  0.848E-02
  19.855  0.873E-02  0.873E-02
  19.870  0.897E-02  0.897E-02
  19.885  0.919E-02  0.919E-02
  19.900  0.936E-02  0.936E-02
  19.915  0.950E-02  0.950E-02
  19.930  0.958E-02  0.958E-02
  19.945  0.963E-02  0.963E-02
  19.960  0.962E-02  0.962E-02
  19.975  0.958E-02  0.958E-02
  19.990  0.951E-02  0.951E-02
  20.005  0.941E-02  0.941E-02
  20.020  0.929E-02  0.929E-02
  20.035  0.916E-02  0.916E-02
  20.050  0.902E-02  0.902E-02
  20.065  0.887E-02  0.887E-02
  20.080  0.873E-02  0.873E-02
  20.095  0.859E-02  0.859E-02
  20.110  0.845E-02  0.845E-02
  20.125  0.832E-02  0.832E-02
  20.140  0.819E-02  0.819E-02
  20.155  0.808E-02  0.808E-02
  20.170  0.797E-02  0.797E-02
  20.185  0.787E-02  0.787E-02
  20.200  0.778E-02  0.778E-02
  20.215  0.770E-02  0.770E-02
  20.230  0.764E-02  0.764E-02
  20.245  0.758E-02  0.758E-02
  20.260  0.754E-02  0.754E-02
  20.275  0.750E-02  0.750E-02
  20.290  0.747E-02  0.747E-02
  20.305  0.743E-02  0.743E-02
  20.320  0.739E-02  0.739E-02
  20.335  0.733E-02  0.733E-02
  20.350  0.725E-02  0.725E-02
  20.365  0.714E-02  0.714E-02
  20.380  0.700E-02  0.700E-02
  20.395  0.683E-02  0.683E-02
  20.410  0.663E-02  0.663E-02
  20.425  0.640E-02  0.640E-02
  20.440  0.616E-02  0.616E-02
  20.455  0.592E-02  0.592E-02
  20.470  0.570E-02  0.570E-02
  20.485  0.551E-02  0.551E-02
  20.500  0.538E-02  0.538E-02
  20.515  0.531E-02  0.531E-02
  20.530  0.534E-02  0.534E-02
  20.545  0.546E-02  0.546E-02
  20.560  0.569E-02  0.569E-02
  20.575  0.604E-02  0.604E-02
  20.590  0.651E-02  0.651E-02
  20.605  0.709E-02  0.709E-02
  20.620  0.779E-02  0.779E-02
  20.635  0.859E-02  0.859E-02
  20.650  0.948E-02  0.948E-02
  20.665  0.104E-01  0.104E-01
  20.680  0.115E-01  0.115E-01
  20.695  0.125E-01  0.125E-01
  20.710  0.136E-01  0.136E-01
  20.725  0.147E-01  0.147E-01
  20.740  0.158E-01  0.158E-01
  20.755  0.168E-01  0.168E-01
  20.770  0.178E-01  0.178E-01
  20.785  0.188E-01  0.188E-01
  20.800  0.198E-01  0.198E-01
  20.815  0.207E-01  0.207E-01
  20.830  0.215E-01  0.215E-01
  20.845  0.224E-01  0.224E-01
  20.860  0.232E-01  0.232E-01
  20.875  0.239E-01  0.239E-01
  20.890  0.246E-01  0.246E-01
  20.905  0.253E-01  0.253E-01
  20.920  0.258E-01  0.258E-01
  20.935  0.263E-01  0.263E-01
  20.950  0.267E-01  0.267E-01
  20.965  0.271E-01  0.271E-01
  20.980  0.273E-01  0.273E-01
  20.995  0.275E-01  0.275E-01
  21.010  0.276E-01  0.276E-01
  21.025  0.277E-01  0.277E-01
  21.040  0.278E-01  0.278E-01
  21.055  0.278E-01  0.278E-01
  21.070  0.279E-01  0.279E-01
  21.085  0.280E-01  0.280E-01
  21.100  0.281E-01  0.281E-01
  21.115  0.282E-01  0.282E-01
  21.130  0.284E-01  0.284E-01
  21.145  0.286E-01  0.286E-01
  21.160  0.289E-01  0.289E-01
  21.175  0.293E-01  0.293E-01
  21.190  0.297E-01  0.297E-01
  21.205  0.303E-01  0.303E-01
  21.220  0.308E-01  0.308E-01
  21.235  0.315E-01  0.315E-01
  21.250  0.322E-01  0.322E-01
  21.265  0.330E-01  0.330E-01
  21.280  0.338E-01  0.338E-01
  21.295  0.346E-01  0.346E-01
  21.310  0.354E-01  0.354E-01
  21.325  0.362E-01  0.362E-01
  21.340  0.370E-01  0.370E-01
  21.355  0.379E-01  0.379E-01
  21.370  0.387E-01  0.387E-01
  21.385  0.396E-01  0.396E-01
  21.400  0.405E-01  0.405E-01
  21.415  0.414E-01  0.414E-01
  21.430  0.424E-01  0.424E-01
  21.445  0.435E-01  0.435E-01
  21.460  0.446E-01  0.446E-01
  21.475  0.457E-01  0.457E-01
  21.490  0.469E-01  0.469E-01
  21.505  0.480E-01  0.480E-01
  21.520  0.490E-01  0.490E-01
  21.535  0.500E-01  0.500E-01
  21.550  0.508E-01  0.508E-01
  21.565  0.515E-01  0.515E-01
  21.580  0.521E-01  0.521E-01
  21.595  0.527E-01  0.527E-01
  21.610  0.531E-01  0.531E-01
  21.625  0.535E-01  0.535E-01
  21.640  0.539E-01  0.539E-01
  21.655  0.544E-01  0.544E-01
  21.670  0.549E-01  0.549E-01
  21.685  0.556E-01  0.556E-01
  21.700  0.564E-01  0.564E-01
  21.715  0.573E-01  0.573E-01
  21.730  0.584E-01  0.584E-01
  21.745  0.595E-01  0.595E-01
  21.760  0.607E-01  0.607E-01
  21.775  0.618E-01  0.618E-01
  21.790  0.628E-01  0.628E-01
  21.805  0.638E-01  0.638E-01
  21.820  0.645E-01  0.645E-01
  21.835  0.650E-01  0.650E-01
  21.850  0.653E-01  0.653E-01
  21.865  0.655E-01  0.655E-01
  21.880  0.654E-01  0.654E-01
  21.895  0.653E-01  0.653E-01
  21.910  0.651E-01  0.651E-01
  21.925  0.649E-01  0.649E-01
  21.940  0.647E-01  0.647E-01
  21.955  0.647E-01  0.647E-01
  21.970  0.648E-01  0.648E-01
  21.985  0.650E-01  0.650E-01
  22.000  0.653E-01  0.653E-01
  22.015  0.657E-01  0.657E-01
  22.030  0.661E-01  0.661E-01
  22.045  0.664E-01  0.664E-01
  22.060  0.666E-01  0.666E-01
  22.075  0.666E-01  0.666E-01
  22.090  0.664E-01  0.664E-01
  22.105  0.661E-01  0.661E-01
  22.120  0.656E-01  0.656E-01
  22.135  0.651E-01  0.651E-01
  22.150  0.644E-01  0.644E-01
  22.165  0.638E-01  0.638E-01
  22.180  0.634E-01  0.634E-01
  22.195  0.630E-01  0.630E-01
  22.210  0.629E-01  0.629E-01
  22.225  0.630E-01  0.630E-01
  22.240  0.633E-01  0.633E-01
  22.255  0.639E-01  0.639E-01
  22.270  0.646E-01  0.646E-01
  22.285  0.655E-01  0.655E-01
  22.300  0.665E-01  0.665E-01
  22.315  0.676E-01  0.676E-01
  22.330  0.686E-01  0.686E-01
  22.345  0.697E-01  0.697E-01
  22.360  0.706E-01  0.706E-01
  22.375  0.715E-01  0.715E-01
  22.390  0.721E-01  0.721E-01
  22.405  0.724E-01  0.724E-01
  22.420  0.725E-01  0.725E-01
  22.435  0.722E-01  0.722E-01
  22.450  0.715E-01  0.715E-01
  22.465  0.705E-01  0.705E-01
  22.480  0.690E-01  0.690E-01
  22.495  0.672E-01  0.672E-01
  22.510  0.651E-01  0.651E-01
  22.525  0.627E-01  0.627E-01
  22.540  0.601E-01  0.601E-01
  22.555  0.573E-01  0.573E-01
  22.570  0.545E-01  0.545E-01
  22.585  0.517E-01  0.517E-01
  22.600  0.490E-01  0.490E-01
  22.615  0.463E-01  0.463E-01
  22.630  0.437E-01  0.437E-01
  22.645  0.413E-01  0.413E-01
  22.660  0.390E-01  0.390E-01
  22.675  0.367E-01  0.367E-01
  22.690  0.347E-01  0.347E-01
  22.705  0.327E-01  0.327E-01
  22.720  0.308E-01  0.308E-01
  22.735  0.290E-01  0.290E-01
  22.750  0.273E-01  0.273E-01
  22.765  0.258E-01  0.258E-01
  22.780  0.243E-01  0.243E-01
  22.795  0.229E-01  0.229E-01
  22.810  0.217E-01  0.217E-01
  22.825  0.205E-01  0.205E-01
  22.840  0.195E-01  0.195E-01
  22.855  0.185E-01  0.185E-01
  22.870  0.177E-01  0.177E-01
  22.885  0.170E-01  0.170E-01
  22.900  0.164E-01  0.164E-01
  22.915  0.160E-01  0.160E-01
  22.930  0.157E-01  0.157E-01
  22.945  0.156E-01  0.156E-01
  22.960  0.156E-01  0.156E-01
  22.975  0.158E-01  0.158E-01
  22.990  0.160E-01  0.160E-01
  23.005  0.163E-01  0.163E-01
  23.020  0.166E-01  0.166E-01
  23.035  0.170E-01  0.170E-01
  23.050  0.172E-01  0.172E-01
  23.065  0.174E-01  0.174E-01
  23.080  0.175E-01  0.175E-01
  23.095  0.174E-01  0.174E-01
  23.110  0.172E-01  0.172E-01
  23.125  0.169E-01  0.169E-01
  23.140  0.165E-01  0.165E-01
  23.155  0.160E-01  0.160E-01
  23.170  0.154E-01  0.154E-01
  23.185  0.149E-01  0.149E-01
  23.200  0.144E-01  0.144E-01
  23.215  0.139E-01  0.139E-01
  23.230  0.135E-01  0.135E-01
  23.245  0.132E-01  0.132E-01
  23.260  0.130E-01  0.130E-01
  23.275  0.129E-01  0.129E-01
  23.290  0.129E-01  0.129E-01
  23.305  0.130E-01  0.130E-01
  23.320  0.131E-01  0.131E-01
  23.335  0.133E-01  0.133E-01
  23.350  0.136E-01  0.136E-01
  23.365  0.139E-01  0.139E-01
  23.380  0.142E-01  0.142E-01
  23.395  0.146E-01  0.146E-01
  23.410  0.150E-01  0.150E-01
  23.425  0.154E-01  0.154E-01
  23.440  0.158E-01  0.158E-01
  23.455  0.163E-01  0.163E-01
  23.470  0.167E-01  0.167E-01
  23.485  0.171E-01  0.171E-01
  23.500  0.175E-01  0.175E-01
  23.515  0.179E-01  0.179E-01
  23.530  0.181E-01  0.181E-01
  23.545  0.183E-01  0.183E-01
  23.560  0.184E-01  0.184E-01
  23.575  0.183E-01  0.183E-01
  23.590  0.181E-01  0.181E-01
  23.605  0.177E-01  0.177E-01
  23.620  0.172E-01  0.172E-01
  23.635  0.166E-01  0.166E-01
  23.650  0.158E-01  0.158E-01
  23.665  0.150E-01  0.150E-01
  23.680  0.141E-01  0.141E-01
  23.695  0.131E-01  0.131E-01
  23.710  0.122E-01  0.122E-01
  23.725  0.113E-01  0.113E-01
  23.740  0.104E-01  0.104E-01
  23.755  0.957E-02  0.957E-02
  23.770  0.880E-02  0.880E-02
  23.785  0.809E-02  0.809E-02
  23.800  0.746E-02  0.746E-02
  23.815  0.690E-02  0.690E-02
  23.830  0.640E-02  0.640E-02
  23.845  0.596E-02  0.596E-02
  23.860  0.558E-02  0.558E-02
  23.875  0.525E-02  0.525E-02
  23.890  0.497E-02  0.497E-02
  23.905  0.473E-02  0.473E-02
  23.920  0.452E-02  0.452E-02
  23.935  0.434E-02  0.434E-02
  23.950  0.419E-02  0.419E-02
  23.965  0.406E-02  0.406E-02
  23.980  0.395E-02  0.395E-02
  23.995  0.385E-02  0.385E-02
  24.010  0.376E-02  0.376E-02
  24.025  0.368E-02  0.368E-02
  24.040  0.360E-02  0.360E-02
  24.055  0.352E-02  0.352E-02
  24.070  0.343E-02  0.343E-02
  24.085  0.335E-02  0.335E-02
  24.100  0.326E-02  0.326E-02
  24.115  0.317E-02  0.317E-02
  24.130  0.307E-02  0.307E-02
  24.145  0.297E-02  0.297E-02
  24.160  0.287E-02  0.287E-02
  24.175  0.277E-02  0.277E-02
  24.190  0.268E-02  0.268E-02
  24.205  0.259E-02  0.259E-02
  24.220  0.251E-02  0.251E-02
  24.235  0.243E-02  0.243E-02
  24.250  0.237E-02  0.237E-02
  24.265  0.232E-02  0.232E-02
  24.280  0.227E-02  0.227E-02
  24.295  0.224E-02  0.224E-02
  24.310  0.223E-02  0.223E-02
  24.325  0.222E-02  0.222E-02
  24.340  0.222E-02  0.222E-02
  24.355  0.224E-02  0.224E-02
  24.370  0.226E-02  0.226E-02
  24.385  0.229E-02  0.229E-02
  24.400  0.232E-02  0.232E-02
  24.415  0.236E-02  0.236E-02
  24.430  0.240E-02  0.240E-02
  24.445  0.244E-02  0.244E-02
  24.460  0.248E-02  0.248E-02
  24.475  0.251E-02  0.251E-02
  24.490  0.254E-02  0.254E-02
  24.505  0.257E-02  0.257E-02
  24.520  0.259E-02  0.259E-02
  24.535  0.261E-02  0.261E-02
  24.550  0.262E-02  0.262E-02
  24.565  0.264E-02  0.264E-02
  24.580  0.266E-02  0.266E-02
  24.595  0.269E-02  0.269E-02
  24.610  0.272E-02  0.272E-02
  24.625  0.276E-02  0.276E-02
  24.640  0.282E-02  0.282E-02
  24.655  0.288E-02  0.288E-02
  24.670  0.296E-02  0.296E-02
  24.685  0.305E-02  0.305E-02
  24.700  0.314E-02  0.314E-02
  24.715  0.324E-02  0.324E-02
  24.730  0.333E-02  0.333E-02
  24.745  0.342E-02  0.342E-02
  24.760  0.351E-02  0.351E-02
  24.775  0.358E-02  0.358E-02
  24.790  0.363E-02  0.363E-02
  24.805  0.367E-02  0.367E-02
  24.820  0.370E-02  0.370E-02
  24.835  0.371E-02  0.371E-02
  24.850  0.370E-02  0.370E-02
  24.865  0.367E-02  0.367E-02
  24.880  0.363E-02  0.363E-02
  24.895  0.357E-02  0.357E-02
  24.910  0.350E-02  0.350E-02
  24.925  0.342E-02  0.342E-02
  24.940  0.332E-02  0.332E-02
  24.955  0.321E-02  0.321E-02
  24.970  0.309E-02  0.309E-02
  24.985  0.296E-02  0.296E-02
  25.000  0.282E-02  0.282E-02
  25.015  0.268E-02  0.268E-02
  25.030  0.254E-02  0.254E-02
  25.045  0.241E-02  0.241E-02
  25.060  0.228E-02  0.228E-02
  25.075  0.217E-02  0.217E-02
  25.090  0.207E-02  0.207E-02
  25.105  0.199E-02  0.199E-02
  25.120  0.193E-02  0.193E-02
  25.135  0.189E-02  0.189E-02
  25.150  0.187E-02  0.187E-02
  25.165  0.187E-02  0.187E-02
  25.180  0.188E-02  0.188E-02
  25.195  0.190E-02  0.190E-02
  25.210  0.192E-02  0.192E-02
  25.225  0.195E-02  0.195E-02
  25.240  0.197E-02  0.197E-02
  25.255  0.197E-02  0.197E-02
  25.270  0.197E-02  0.197E-02
  25.285  0.195E-02  0.195E-02
  25.300  0.191E-02  0.191E-02
  25.315  0.185E-02  0.185E-02
  25.330  0.177E-02  0.177E-02
  25.345  0.167E-02  0.167E-02
  25.360  0.156E-02  0.156E-02
  25.375  0.143E-02  0.143E-02
  25.390  0.130E-02  0.130E-02
  25.405  0.115E-02  0.115E-02
  25.420  0.101E-02  0.101E-02
  25.435  0.875E-03  0.875E-03
  25.450  0.744E-03  0.744E-03
  25.465  0.621E-03  0.621E-03
  25.480  0.510E-03  0.510E-03
  25.495  0.411E-03  0.411E-03
  25.510  0.325E-03  0.325E-03
  25.525  0.253E-03  0.253E-03
  25.540  0.193E-03  0.193E-03
  25.555  0.144E-03  0.144E-03
  25.570  0.106E-03  0.106E-03
  25.585  0.762E-04  0.762E-04
  25.600  0.537E-04  0.537E-04
  25.615  0.371E-04  0.371E-04
  25.630  0.251E-04  0.251E-04
  25.645  0.166E-04  0.166E-04
  25.660  0.108E-04  0.108E-04
  25.675  0.686E-05  0.686E-05
  25.690  0.426E-05  0.426E-05
  25.705  0.259E-05  0.259E-05
  25.720  0.154E-05  0.154E-05
  25.735  0.898E-06  0.898E-06
  25.750  0.511E-06  0.511E-06
  25.765  0.284E-06  0.284E-06
  25.780  0.155E-06  0.155E-06
  25.795  0.824E-07  0.824E-07
  25.810  0.428E-07  0.428E-07
  25.825  0.218E-07  0.218E-07
  25.840  0.108E-07  0.108E-07
