# E (eV)   ldos(E)   pdos(E)   
 -32.615  0.611E-03  0.611E-03
 -32.600  0.119E-02  0.119E-02
 -32.585  0.226E-02  0.226E-02
 -32.570  0.420E-02  0.420E-02
 -32.555  0.760E-02  0.760E-02
 -32.540  0.134E-01  0.134E-01
 -32.525  0.232E-01  0.232E-01
 -32.510  0.390E-01  0.390E-01
 -32.495  0.641E-01  0.641E-01
 -32.480  0.103E+00  0.103E+00
 -32.465  0.161E+00  0.161E+00
 -32.450  0.246E+00  0.246E+00
 -32.435  0.367E+00  0.367E+00
 -32.420  0.534E+00  0.534E+00
 -32.405  0.759E+00  0.759E+00
 -32.390  0.105E+01  0.105E+01
 -32.375  0.142E+01  0.142E+01
 -32.360  0.188E+01  0.188E+01
 -32.345  0.243E+01  0.243E+01
 -32.330  0.305E+01  0.305E+01
 -32.315  0.375E+01  0.375E+01
 -32.300  0.450E+01  0.450E+01
 -32.285  0.526E+01  0.526E+01
 -32.270  0.601E+01  0.601E+01
 -32.255  0.670E+01  0.670E+01
 -32.240  0.729E+01  0.729E+01
 -32.225  0.774E+01  0.774E+01
 -32.210  0.802E+01  0.802E+01
 -32.195  0.812E+01  0.812E+01
 -32.180  0.801E+01  0.801E+01
 -32.165  0.772E+01  0.772E+01
 -32.150  0.726E+01  0.726E+01
 -32.135  0.667E+01  0.667E+01
 -32.120  0.598E+01  0.598E+01
 -32.105  0.523E+01  0.523E+01
 -32.090  0.446E+01  0.446E+01
 -32.075  0.372E+01  0.372E+01
 -32.060  0.302E+01  0.302E+01
 -32.045  0.240E+01  0.240E+01
 -32.030  0.186E+01  0.186E+01
 -32.015  0.141E+01  0.141E+01
 -32.000  0.104E+01  0.104E+01
 -31.985  0.747E+00  0.747E+00
 -31.970  0.525E+00  0.525E+00
 -31.955  0.360E+00  0.360E+00
 -31.940  0.241E+00  0.241E+00
 -31.925  0.158E+00  0.158E+00
 -31.910  0.101E+00  0.101E+00
 -31.895  0.627E-01  0.627E-01
 -31.880  0.381E-01  0.381E-01
 -31.865  0.226E-01  0.226E-01
 -31.850  0.131E-01  0.131E-01
 -31.835  0.740E-02  0.740E-02
 -31.820  0.408E-02  0.408E-02
 -31.805  0.220E-02  0.220E-02
 -31.790  0.115E-02  0.115E-02
 -31.775  0.592E-03  0.592E-03
 -31.760  0.296E-03  0.296E-03
 -31.745  0.145E-03  0.145E-03
 -31.730  0.690E-04  0.690E-04
 -31.715  0.321E-04  0.321E-04
 -31.700  0.146E-04  0.146E-04
 -31.685  0.647E-05  0.647E-05
 -31.670  0.280E-05  0.280E-05
 -31.655  0.118E-05  0.118E-05
 -31.640  0.488E-06  0.488E-06
 -31.625  0.196E-06  0.196E-06
 -31.610  0.771E-07  0.771E-07
 -31.595  0.295E-07  0.295E-07
 -31.580  0.111E-07  0.111E-07
 -31.565  0.404E-08  0.404E-08
 -31.550  0.144E-08  0.144E-08
 -31.535  0.500E-09  0.500E-09
 -31.520  0.170E-09  0.170E-09
 -31.505  0.543E-10  0.543E-10
 -31.490  0.959E-12  0.959E-12
 -31.475  0.000E+00  0.000E+00
 -31.460  0.000E+00  0.000E+00
 -31.445  0.000E+00  0.000E+00
 -31.430  0.000E+00  0.000E+00
 -31.415  0.000E+00  0.000E+00
 -31.400  0.000E+00  0.000E+00
 -31.385  0.000E+00  0.000E+00
 -31.370  0.000E+00  0.000E+00
 -31.355  0.000E+00  0.000E+00
 -31.340  0.000E+00  0.000E+00
 -31.325  0.000E+00  0.000E+00
 -31.310  0.000E+00  0.000E+00
 -31.295  0.000E+00  0.000E+00
 -31.280  0.000E+00  0.000E+00
 -31.265  0.000E+00  0.000E+00
 -31.250  0.000E+00  0.000E+00
 -31.235  0.000E+00  0.000E+00
 -31.220  0.000E+00  0.000E+00
 -31.205  0.000E+00  0.000E+00
 -31.190  0.000E+00  0.000E+00
 -31.175  0.000E+00  0.000E+00
 -31.160  0.000E+00  0.000E+00
 -31.145  0.000E+00  0.000E+00
 -31.130  0.000E+00  0.000E+00
 -31.115  0.000E+00  0.000E+00
 -31.100  0.000E+00  0.000E+00
 -31.085  0.000E+00  0.000E+00
 -31.070  0.000E+00  0.000E+00
 -31.055  0.000E+00  0.000E+00
 -31.040  0.000E+00  0.000E+00
 -31.025  0.000E+00  0.000E+00
 -31.010  0.000E+00  0.000E+00
 -30.995  0.000E+00  0.000E+00
 -30.980  0.000E+00  0.000E+00
 -30.965  0.000E+00  0.000E+00
 -30.950  0.000E+00  0.000E+00
 -30.935  0.000E+00  0.000E+00
 -30.920  0.000E+00  0.000E+00
 -30.905  0.000E+00  0.000E+00
 -30.890  0.000E+00  0.000E+00
 -30.875  0.000E+00  0.000E+00
 -30.860  0.000E+00  0.000E+00
 -30.845  0.000E+00  0.000E+00
 -30.830  0.000E+00  0.000E+00
 -30.815  0.000E+00  0.000E+00
 -30.800  0.000E+00  0.000E+00
 -30.785  0.000E+00  0.000E+00
 -30.770  0.000E+00  0.000E+00
 -30.755  0.000E+00  0.000E+00
 -30.740  0.000E+00  0.000E+00
 -30.725  0.000E+00  0.000E+00
 -30.710  0.000E+00  0.000E+00
 -30.695  0.000E+00  0.000E+00
 -30.680  0.000E+00  0.000E+00
 -30.665  0.000E+00  0.000E+00
 -30.650  0.000E+00  0.000E+00
 -30.635  0.000E+00  0.000E+00
 -30.620  0.000E+00  0.000E+00
 -30.605  0.000E+00  0.000E+00
 -30.590  0.000E+00  0.000E+00
 -30.575  0.000E+00  0.000E+00
 -30.560  0.000E+00  0.000E+00
 -30.545  0.000E+00  0.000E+00
 -30.530  0.000E+00  0.000E+00
 -30.515  0.000E+00  0.000E+00
 -30.500  0.000E+00  0.000E+00
 -30.485  0.000E+00  0.000E+00
 -30.470  0.000E+00  0.000E+00
 -30.455  0.000E+00  0.000E+00
 -30.440  0.000E+00  0.000E+00
 -30.425  0.000E+00  0.000E+00
 -30.410  0.000E+00  0.000E+00
 -30.395  0.000E+00  0.000E+00
 -30.380  0.000E+00  0.000E+00
 -30.365  0.000E+00  0.000E+00
 -30.350  0.000E+00  0.000E+00
 -30.335  0.000E+00  0.000E+00
 -30.320  0.000E+00  0.000E+00
 -30.305  0.000E+00  0.000E+00
 -30.290  0.000E+00  0.000E+00
 -30.275  0.000E+00  0.000E+00
 -30.260  0.000E+00  0.000E+00
 -30.245  0.000E+00  0.000E+00
 -30.230  0.000E+00  0.000E+00
 -30.215  0.000E+00  0.000E+00
 -30.200  0.000E+00  0.000E+00
 -30.185  0.000E+00  0.000E+00
 -30.170  0.000E+00  0.000E+00
 -30.155  0.000E+00  0.000E+00
 -30.140  0.000E+00  0.000E+00
 -30.125  0.000E+00  0.000E+00
 -30.110  0.000E+00  0.000E+00
 -30.095  0.000E+00  0.000E+00
 -30.080  0.000E+00  0.000E+00
 -30.065  0.000E+00  0.000E+00
 -30.050  0.000E+00  0.000E+00
 -30.035  0.000E+00  0.000E+00
 -30.020  0.000E+00  0.000E+00
 -30.005  0.000E+00  0.000E+00
 -29.990  0.000E+00  0.000E+00
 -29.975  0.000E+00  0.000E+00
 -29.960  0.000E+00  0.000E+00
 -29.945  0.000E+00  0.000E+00
 -29.930  0.000E+00  0.000E+00
 -29.915  0.000E+00  0.000E+00
 -29.900  0.000E+00  0.000E+00
 -29.885  0.000E+00  0.000E+00
 -29.870  0.000E+00  0.000E+00
 -29.855  0.000E+00  0.000E+00
 -29.840  0.000E+00  0.000E+00
 -29.825  0.000E+00  0.000E+00
 -29.810  0.000E+00  0.000E+00
 -29.795  0.000E+00  0.000E+00
 -29.780  0.000E+00  0.000E+00
 -29.765  0.000E+00  0.000E+00
 -29.750  0.000E+00  0.000E+00
 -29.735  0.000E+00  0.000E+00
 -29.720  0.000E+00  0.000E+00
 -29.705  0.000E+00  0.000E+00
 -29.690  0.000E+00  0.000E+00
 -29.675  0.000E+00  0.000E+00
 -29.660  0.000E+00  0.000E+00
 -29.645  0.000E+00  0.000E+00
 -29.630  0.000E+00  0.000E+00
 -29.615  0.000E+00  0.000E+00
 -29.600  0.000E+00  0.000E+00
 -29.585  0.000E+00  0.000E+00
 -29.570  0.000E+00  0.000E+00
 -29.555  0.000E+00  0.000E+00
 -29.540  0.000E+00  0.000E+00
 -29.525  0.000E+00  0.000E+00
 -29.510  0.000E+00  0.000E+00
 -29.495  0.000E+00  0.000E+00
 -29.480  0.000E+00  0.000E+00
 -29.465  0.000E+00  0.000E+00
 -29.450  0.000E+00  0.000E+00
 -29.435  0.000E+00  0.000E+00
 -29.420  0.000E+00  0.000E+00
 -29.405  0.000E+00  0.000E+00
 -29.390  0.000E+00  0.000E+00
 -29.375  0.000E+00  0.000E+00
 -29.360  0.000E+00  0.000E+00
 -29.345  0.000E+00  0.000E+00
 -29.330  0.000E+00  0.000E+00
 -29.315  0.000E+00  0.000E+00
 -29.300  0.000E+00  0.000E+00
 -29.285  0.000E+00  0.000E+00
 -29.270  0.000E+00  0.000E+00
 -29.255  0.000E+00  0.000E+00
 -29.240  0.000E+00  0.000E+00
 -29.225  0.000E+00  0.000E+00
 -29.210  0.000E+00  0.000E+00
 -29.195  0.000E+00  0.000E+00
 -29.180  0.000E+00  0.000E+00
 -29.165  0.000E+00  0.000E+00
 -29.150  0.000E+00  0.000E+00
 -29.135  0.000E+00  0.000E+00
 -29.120  0.000E+00  0.000E+00
 -29.105  0.000E+00  0.000E+00
 -29.090  0.000E+00  0.000E+00
 -29.075  0.000E+00  0.000E+00
 -29.060  0.000E+00  0.000E+00
 -29.045  0.000E+00  0.000E+00
 -29.030  0.000E+00  0.000E+00
 -29.015  0.000E+00  0.000E+00
 -29.000  0.000E+00  0.000E+00
 -28.985  0.000E+00  0.000E+00
 -28.970  0.000E+00  0.000E+00
 -28.955  0.000E+00  0.000E+00
 -28.940  0.000E+00  0.000E+00
 -28.925  0.000E+00  0.000E+00
 -28.910  0.000E+00  0.000E+00
 -28.895  0.000E+00  0.000E+00
 -28.880  0.000E+00  0.000E+00
 -28.865  0.000E+00  0.000E+00
 -28.850  0.000E+00  0.000E+00
 -28.835  0.000E+00  0.000E+00
 -28.820  0.000E+00  0.000E+00
 -28.805  0.000E+00  0.000E+00
 -28.790  0.000E+00  0.000E+00
 -28.775  0.000E+00  0.000E+00
 -28.760  0.000E+00  0.000E+00
 -28.745  0.000E+00  0.000E+00
 -28.730  0.000E+00  0.000E+00
 -28.715  0.000E+00  0.000E+00
 -28.700  0.000E+00  0.000E+00
 -28.685  0.000E+00  0.000E+00
 -28.670  0.000E+00  0.000E+00
 -28.655  0.000E+00  0.000E+00
 -28.640  0.000E+00  0.000E+00
 -28.625  0.000E+00  0.000E+00
 -28.610  0.000E+00  0.000E+00
 -28.595  0.000E+00  0.000E+00
 -28.580  0.000E+00  0.000E+00
 -28.565  0.000E+00  0.000E+00
 -28.550  0.000E+00  0.000E+00
 -28.535  0.000E+00  0.000E+00
 -28.520  0.000E+00  0.000E+00
 -28.505  0.000E+00  0.000E+00
 -28.490  0.000E+00  0.000E+00
 -28.475  0.000E+00  0.000E+00
 -28.460  0.000E+00  0.000E+00
 -28.445  0.000E+00  0.000E+00
 -28.430  0.000E+00  0.000E+00
 -28.415  0.000E+00  0.000E+00
 -28.400  0.000E+00  0.000E+00
 -28.385  0.000E+00  0.000E+00
 -28.370  0.000E+00  0.000E+00
 -28.355  0.000E+00  0.000E+00
 -28.340  0.000E+00  0.000E+00
 -28.325  0.000E+00  0.000E+00
 -28.310  0.000E+00  0.000E+00
 -28.295  0.000E+00  0.000E+00
 -28.280  0.000E+00  0.000E+00
 -28.265  0.000E+00  0.000E+00
 -28.250  0.000E+00  0.000E+00
 -28.235  0.000E+00  0.000E+00
 -28.220  0.000E+00  0.000E+00
 -28.205  0.000E+00  0.000E+00
 -28.190  0.000E+00  0.000E+00
 -28.175  0.000E+00  0.000E+00
 -28.160  0.000E+00  0.000E+00
 -28.145  0.000E+00  0.000E+00
 -28.130  0.000E+00  0.000E+00
 -28.115  0.000E+00  0.000E+00
 -28.100  0.000E+00  0.000E+00
 -28.085  0.000E+00  0.000E+00
 -28.070  0.000E+00  0.000E+00
 -28.055  0.000E+00  0.000E+00
 -28.040  0.000E+00  0.000E+00
 -28.025  0.000E+00  0.000E+00
 -28.010  0.000E+00  0.000E+00
 -27.995  0.000E+00  0.000E+00
 -27.980  0.000E+00  0.000E+00
 -27.965  0.000E+00  0.000E+00
 -27.950  0.000E+00  0.000E+00
 -27.935  0.000E+00  0.000E+00
 -27.920  0.000E+00  0.000E+00
 -27.905  0.000E+00  0.000E+00
 -27.890  0.000E+00  0.000E+00
 -27.875  0.000E+00  0.000E+00
 -27.860  0.000E+00  0.000E+00
 -27.845  0.000E+00  0.000E+00
 -27.830  0.000E+00  0.000E+00
 -27.815  0.000E+00  0.000E+00
 -27.800  0.000E+00  0.000E+00
 -27.785  0.000E+00  0.000E+00
 -27.770  0.000E+00  0.000E+00
 -27.755  0.000E+00  0.000E+00
 -27.740  0.000E+00  0.000E+00
 -27.725  0.000E+00  0.000E+00
 -27.710  0.000E+00  0.000E+00
 -27.695  0.000E+00  0.000E+00
 -27.680  0.000E+00  0.000E+00
 -27.665  0.000E+00  0.000E+00
 -27.650  0.000E+00  0.000E+00
 -27.635  0.000E+00  0.000E+00
 -27.620  0.000E+00  0.000E+00
 -27.605  0.000E+00  0.000E+00
 -27.590  0.000E+00  0.000E+00
 -27.575  0.000E+00  0.000E+00
 -27.560  0.000E+00  0.000E+00
 -27.545  0.000E+00  0.000E+00
 -27.530  0.000E+00  0.000E+00
 -27.515  0.000E+00  0.000E+00
 -27.500  0.000E+00  0.000E+00
 -27.485  0.000E+00  0.000E+00
 -27.470  0.000E+00  0.000E+00
 -27.455  0.000E+00  0.000E+00
 -27.440  0.000E+00  0.000E+00
 -27.425  0.000E+00  0.000E+00
 -27.410  0.000E+00  0.000E+00
 -27.395  0.000E+00  0.000E+00
 -27.380  0.000E+00  0.000E+00
 -27.365  0.000E+00  0.000E+00
 -27.350  0.000E+00  0.000E+00
 -27.335  0.000E+00  0.000E+00
 -27.320  0.000E+00  0.000E+00
 -27.305  0.000E+00  0.000E+00
 -27.290  0.000E+00  0.000E+00
 -27.275  0.000E+00  0.000E+00
 -27.260  0.000E+00  0.000E+00
 -27.245  0.000E+00  0.000E+00
 -27.230  0.000E+00  0.000E+00
 -27.215  0.000E+00  0.000E+00
 -27.200  0.000E+00  0.000E+00
 -27.185  0.000E+00  0.000E+00
 -27.170  0.000E+00  0.000E+00
 -27.155  0.000E+00  0.000E+00
 -27.140  0.000E+00  0.000E+00
 -27.125  0.000E+00  0.000E+00
 -27.110  0.000E+00  0.000E+00
 -27.095  0.000E+00  0.000E+00
 -27.080  0.000E+00  0.000E+00
 -27.065  0.000E+00  0.000E+00
 -27.050  0.000E+00  0.000E+00
 -27.035  0.000E+00  0.000E+00
 -27.020  0.000E+00  0.000E+00
 -27.005  0.000E+00  0.000E+00
 -26.990  0.000E+00  0.000E+00
 -26.975  0.000E+00  0.000E+00
 -26.960  0.000E+00  0.000E+00
 -26.945  0.000E+00  0.000E+00
 -26.930  0.000E+00  0.000E+00
 -26.915  0.000E+00  0.000E+00
 -26.900  0.000E+00  0.000E+00
 -26.885  0.000E+00  0.000E+00
 -26.870  0.000E+00  0.000E+00
 -26.855  0.000E+00  0.000E+00
 -26.840  0.000E+00  0.000E+00
 -26.825  0.000E+00  0.000E+00
 -26.810  0.000E+00  0.000E+00
 -26.795  0.000E+00  0.000E+00
 -26.780  0.000E+00  0.000E+00
 -26.765  0.000E+00  0.000E+00
 -26.750  0.000E+00  0.000E+00
 -26.735  0.000E+00  0.000E+00
 -26.720  0.000E+00  0.000E+00
 -26.705  0.000E+00  0.000E+00
 -26.690  0.000E+00  0.000E+00
 -26.675  0.000E+00  0.000E+00
 -26.660  0.000E+00  0.000E+00
 -26.645  0.000E+00  0.000E+00
 -26.630  0.000E+00  0.000E+00
 -26.615  0.000E+00  0.000E+00
 -26.600  0.000E+00  0.000E+00
 -26.585  0.000E+00  0.000E+00
 -26.570  0.000E+00  0.000E+00
 -26.555  0.000E+00  0.000E+00
 -26.540  0.000E+00  0.000E+00
 -26.525  0.000E+00  0.000E+00
 -26.510  0.000E+00  0.000E+00
 -26.495  0.000E+00  0.000E+00
 -26.480  0.000E+00  0.000E+00
 -26.465  0.000E+00  0.000E+00
 -26.450  0.000E+00  0.000E+00
 -26.435  0.000E+00  0.000E+00
 -26.420  0.000E+00  0.000E+00
 -26.405  0.000E+00  0.000E+00
 -26.390  0.000E+00  0.000E+00
 -26.375  0.000E+00  0.000E+00
 -26.360  0.000E+00  0.000E+00
 -26.345  0.000E+00  0.000E+00
 -26.330  0.000E+00  0.000E+00
 -26.315  0.000E+00  0.000E+00
 -26.300  0.000E+00  0.000E+00
 -26.285  0.000E+00  0.000E+00
 -26.270  0.000E+00  0.000E+00
 -26.255  0.000E+00  0.000E+00
 -26.240  0.000E+00  0.000E+00
 -26.225  0.000E+00  0.000E+00
 -26.210  0.000E+00  0.000E+00
 -26.195  0.000E+00  0.000E+00
 -26.180  0.000E+00  0.000E+00
 -26.165  0.000E+00  0.000E+00
 -26.150  0.000E+00  0.000E+00
 -26.135  0.000E+00  0.000E+00
 -26.120  0.000E+00  0.000E+00
 -26.105  0.000E+00  0.000E+00
 -26.090  0.000E+00  0.000E+00
 -26.075  0.000E+00  0.000E+00
 -26.060  0.000E+00  0.000E+00
 -26.045  0.000E+00  0.000E+00
 -26.030  0.000E+00  0.000E+00
 -26.015  0.000E+00  0.000E+00
 -26.000  0.000E+00  0.000E+00
 -25.985  0.000E+00  0.000E+00
 -25.970  0.000E+00  0.000E+00
 -25.955  0.000E+00  0.000E+00
 -25.940  0.000E+00  0.000E+00
 -25.925  0.000E+00  0.000E+00
 -25.910  0.000E+00  0.000E+00
 -25.895  0.000E+00  0.000E+00
 -25.880  0.000E+00  0.000E+00
 -25.865  0.000E+00  0.000E+00
 -25.850  0.000E+00  0.000E+00
 -25.835  0.000E+00  0.000E+00
 -25.820  0.000E+00  0.000E+00
 -25.805  0.000E+00  0.000E+00
 -25.790  0.000E+00  0.000E+00
 -25.775  0.000E+00  0.000E+00
 -25.760  0.000E+00  0.000E+00
 -25.745  0.000E+00  0.000E+00
 -25.730  0.000E+00  0.000E+00
 -25.715  0.000E+00  0.000E+00
 -25.700  0.000E+00  0.000E+00
 -25.685  0.000E+00  0.000E+00
 -25.670  0.000E+00  0.000E+00
 -25.655  0.000E+00  0.000E+00
 -25.640  0.000E+00  0.000E+00
 -25.625  0.000E+00  0.000E+00
 -25.610  0.000E+00  0.000E+00
 -25.595  0.000E+00  0.000E+00
 -25.580  0.000E+00  0.000E+00
 -25.565  0.000E+00  0.000E+00
 -25.550  0.000E+00  0.000E+00
 -25.535  0.000E+00  0.000E+00
 -25.520  0.000E+00  0.000E+00
 -25.505  0.000E+00  0.000E+00
 -25.490  0.000E+00  0.000E+00
 -25.475  0.000E+00  0.000E+00
 -25.460  0.000E+00  0.000E+00
 -25.445  0.000E+00  0.000E+00
 -25.430  0.000E+00  0.000E+00
 -25.415  0.000E+00  0.000E+00
 -25.400  0.000E+00  0.000E+00
 -25.385  0.000E+00  0.000E+00
 -25.370  0.000E+00  0.000E+00
 -25.355  0.000E+00  0.000E+00
 -25.340  0.000E+00  0.000E+00
 -25.325  0.000E+00  0.000E+00
 -25.310  0.000E+00  0.000E+00
 -25.295  0.000E+00  0.000E+00
 -25.280  0.000E+00  0.000E+00
 -25.265  0.000E+00  0.000E+00
 -25.250  0.000E+00  0.000E+00
 -25.235  0.000E+00  0.000E+00
 -25.220  0.000E+00  0.000E+00
 -25.205  0.000E+00  0.000E+00
 -25.190  0.000E+00  0.000E+00
 -25.175  0.000E+00  0.000E+00
 -25.160  0.000E+00  0.000E+00
 -25.145  0.000E+00  0.000E+00
 -25.130  0.000E+00  0.000E+00
 -25.115  0.000E+00  0.000E+00
 -25.100  0.000E+00  0.000E+00
 -25.085  0.000E+00  0.000E+00
 -25.070  0.000E+00  0.000E+00
 -25.055  0.000E+00  0.000E+00
 -25.040  0.000E+00  0.000E+00
 -25.025  0.000E+00  0.000E+00
 -25.010  0.000E+00  0.000E+00
 -24.995  0.000E+00  0.000E+00
 -24.980  0.000E+00  0.000E+00
 -24.965  0.000E+00  0.000E+00
 -24.950  0.000E+00  0.000E+00
 -24.935  0.000E+00  0.000E+00
 -24.920  0.000E+00  0.000E+00
 -24.905  0.000E+00  0.000E+00
 -24.890  0.000E+00  0.000E+00
 -24.875  0.000E+00  0.000E+00
 -24.860  0.000E+00  0.000E+00
 -24.845  0.000E+00  0.000E+00
 -24.830  0.000E+00  0.000E+00
 -24.815  0.000E+00  0.000E+00
 -24.800  0.000E+00  0.000E+00
 -24.785  0.000E+00  0.000E+00
 -24.770  0.000E+00  0.000E+00
 -24.755  0.000E+00  0.000E+00
 -24.740  0.000E+00  0.000E+00
 -24.725  0.000E+00  0.000E+00
 -24.710  0.000E+00  0.000E+00
 -24.695  0.000E+00  0.000E+00
 -24.680  0.000E+00  0.000E+00
 -24.665  0.000E+00  0.000E+00
 -24.650  0.000E+00  0.000E+00
 -24.635  0.000E+00  0.000E+00
 -24.620  0.000E+00  0.000E+00
 -24.605  0.000E+00  0.000E+00
 -24.590  0.000E+00  0.000E+00
 -24.575  0.000E+00  0.000E+00
 -24.560  0.000E+00  0.000E+00
 -24.545  0.000E+00  0.000E+00
 -24.530  0.000E+00  0.000E+00
 -24.515  0.000E+00  0.000E+00
 -24.500  0.000E+00  0.000E+00
 -24.485  0.000E+00  0.000E+00
 -24.470  0.000E+00  0.000E+00
 -24.455  0.000E+00  0.000E+00
 -24.440  0.000E+00  0.000E+00
 -24.425  0.000E+00  0.000E+00
 -24.410  0.000E+00  0.000E+00
 -24.395  0.000E+00  0.000E+00
 -24.380  0.000E+00  0.000E+00
 -24.365  0.000E+00  0.000E+00
 -24.350  0.000E+00  0.000E+00
 -24.335  0.000E+00  0.000E+00
 -24.320  0.000E+00  0.000E+00
 -24.305  0.000E+00  0.000E+00
 -24.290  0.000E+00  0.000E+00
 -24.275  0.000E+00  0.000E+00
 -24.260  0.000E+00  0.000E+00
 -24.245  0.000E+00  0.000E+00
 -24.230  0.000E+00  0.000E+00
 -24.215  0.000E+00  0.000E+00
 -24.200  0.000E+00  0.000E+00
 -24.185  0.000E+00  0.000E+00
 -24.170  0.000E+00  0.000E+00
 -24.155  0.000E+00  0.000E+00
 -24.140  0.000E+00  0.000E+00
 -24.125  0.000E+00  0.000E+00
 -24.110  0.000E+00  0.000E+00
 -24.095  0.000E+00  0.000E+00
 -24.080  0.000E+00  0.000E+00
 -24.065  0.000E+00  0.000E+00
 -24.050  0.000E+00  0.000E+00
 -24.035  0.000E+00  0.000E+00
 -24.020  0.000E+00  0.000E+00
 -24.005  0.000E+00  0.000E+00
 -23.990  0.000E+00  0.000E+00
 -23.975  0.000E+00  0.000E+00
 -23.960  0.000E+00  0.000E+00
 -23.945  0.000E+00  0.000E+00
 -23.930  0.000E+00  0.000E+00
 -23.915  0.000E+00  0.000E+00
 -23.900  0.000E+00  0.000E+00
 -23.885  0.000E+00  0.000E+00
 -23.870  0.000E+00  0.000E+00
 -23.855  0.000E+00  0.000E+00
 -23.840  0.000E+00  0.000E+00
 -23.825  0.000E+00  0.000E+00
 -23.810  0.000E+00  0.000E+00
 -23.795  0.000E+00  0.000E+00
 -23.780  0.000E+00  0.000E+00
 -23.765  0.000E+00  0.000E+00
 -23.750  0.000E+00  0.000E+00
 -23.735  0.000E+00  0.000E+00
 -23.720  0.000E+00  0.000E+00
 -23.705  0.000E+00  0.000E+00
 -23.690  0.000E+00  0.000E+00
 -23.675  0.000E+00  0.000E+00
 -23.660  0.000E+00  0.000E+00
 -23.645  0.000E+00  0.000E+00
 -23.630  0.000E+00  0.000E+00
 -23.615  0.000E+00  0.000E+00
 -23.600  0.000E+00  0.000E+00
 -23.585  0.000E+00  0.000E+00
 -23.570  0.000E+00  0.000E+00
 -23.555  0.000E+00  0.000E+00
 -23.540  0.000E+00  0.000E+00
 -23.525  0.000E+00  0.000E+00
 -23.510  0.000E+00  0.000E+00
 -23.495  0.000E+00  0.000E+00
 -23.480  0.000E+00  0.000E+00
 -23.465  0.000E+00  0.000E+00
 -23.450  0.000E+00  0.000E+00
 -23.435  0.000E+00  0.000E+00
 -23.420  0.000E+00  0.000E+00
 -23.405  0.000E+00  0.000E+00
 -23.390  0.000E+00  0.000E+00
 -23.375  0.000E+00  0.000E+00
 -23.360  0.000E+00  0.000E+00
 -23.345  0.000E+00  0.000E+00
 -23.330  0.000E+00  0.000E+00
 -23.315  0.000E+00  0.000E+00
 -23.300  0.000E+00  0.000E+00
 -23.285  0.000E+00  0.000E+00
 -23.270  0.000E+00  0.000E+00
 -23.255  0.000E+00  0.000E+00
 -23.240  0.000E+00  0.000E+00
 -23.225  0.000E+00  0.000E+00
 -23.210  0.000E+00  0.000E+00
 -23.195  0.000E+00  0.000E+00
 -23.180  0.000E+00  0.000E+00
 -23.165  0.000E+00  0.000E+00
 -23.150  0.000E+00  0.000E+00
 -23.135  0.000E+00  0.000E+00
 -23.120  0.000E+00  0.000E+00
 -23.105  0.000E+00  0.000E+00
 -23.090  0.000E+00  0.000E+00
 -23.075  0.000E+00  0.000E+00
 -23.060  0.000E+00  0.000E+00
 -23.045  0.000E+00  0.000E+00
 -23.030  0.000E+00  0.000E+00
 -23.015  0.000E+00  0.000E+00
 -23.000  0.000E+00  0.000E+00
 -22.985  0.000E+00  0.000E+00
 -22.970  0.000E+00  0.000E+00
 -22.955  0.000E+00  0.000E+00
 -22.940  0.000E+00  0.000E+00
 -22.925  0.000E+00  0.000E+00
 -22.910  0.000E+00  0.000E+00
 -22.895  0.000E+00  0.000E+00
 -22.880  0.000E+00  0.000E+00
 -22.865  0.000E+00  0.000E+00
 -22.850  0.000E+00  0.000E+00
 -22.835  0.000E+00  0.000E+00
 -22.820  0.000E+00  0.000E+00
 -22.805  0.000E+00  0.000E+00
 -22.790  0.000E+00  0.000E+00
 -22.775  0.000E+00  0.000E+00
 -22.760  0.000E+00  0.000E+00
 -22.745  0.000E+00  0.000E+00
 -22.730  0.000E+00  0.000E+00
 -22.715  0.000E+00  0.000E+00
 -22.700  0.000E+00  0.000E+00
 -22.685  0.000E+00  0.000E+00
 -22.670  0.000E+00  0.000E+00
 -22.655  0.000E+00  0.000E+00
 -22.640  0.000E+00  0.000E+00
 -22.625  0.000E+00  0.000E+00
 -22.610  0.000E+00  0.000E+00
 -22.595  0.000E+00  0.000E+00
 -22.580  0.000E+00  0.000E+00
 -22.565  0.000E+00  0.000E+00
 -22.550  0.000E+00  0.000E+00
 -22.535  0.000E+00  0.000E+00
 -22.520  0.000E+00  0.000E+00
 -22.505  0.000E+00  0.000E+00
 -22.490  0.000E+00  0.000E+00
 -22.475  0.000E+00  0.000E+00
 -22.460  0.000E+00  0.000E+00
 -22.445  0.000E+00  0.000E+00
 -22.430  0.000E+00  0.000E+00
 -22.415  0.000E+00  0.000E+00
 -22.400  0.000E+00  0.000E+00
 -22.385  0.000E+00  0.000E+00
 -22.370  0.000E+00  0.000E+00
 -22.355  0.000E+00  0.000E+00
 -22.340  0.000E+00  0.000E+00
 -22.325  0.000E+00  0.000E+00
 -22.310  0.000E+00  0.000E+00
 -22.295  0.000E+00  0.000E+00
 -22.280  0.000E+00  0.000E+00
 -22.265  0.000E+00  0.000E+00
 -22.250  0.000E+00  0.000E+00
 -22.235  0.000E+00  0.000E+00
 -22.220  0.000E+00  0.000E+00
 -22.205  0.000E+00  0.000E+00
 -22.190  0.000E+00  0.000E+00
 -22.175  0.000E+00  0.000E+00
 -22.160  0.000E+00  0.000E+00
 -22.145  0.000E+00  0.000E+00
 -22.130  0.000E+00  0.000E+00
 -22.115  0.000E+00  0.000E+00
 -22.100  0.000E+00  0.000E+00
 -22.085  0.000E+00  0.000E+00
 -22.070  0.000E+00  0.000E+00
 -22.055  0.000E+00  0.000E+00
 -22.040  0.000E+00  0.000E+00
 -22.025  0.000E+00  0.000E+00
 -22.010  0.000E+00  0.000E+00
 -21.995  0.000E+00  0.000E+00
 -21.980  0.000E+00  0.000E+00
 -21.965  0.000E+00  0.000E+00
 -21.950  0.000E+00  0.000E+00
 -21.935  0.000E+00  0.000E+00
 -21.920  0.000E+00  0.000E+00
 -21.905  0.000E+00  0.000E+00
 -21.890  0.000E+00  0.000E+00
 -21.875  0.000E+00  0.000E+00
 -21.860  0.000E+00  0.000E+00
 -21.845  0.000E+00  0.000E+00
 -21.830  0.000E+00  0.000E+00
 -21.815  0.000E+00  0.000E+00
 -21.800  0.000E+00  0.000E+00
 -21.785  0.000E+00  0.000E+00
 -21.770  0.000E+00  0.000E+00
 -21.755  0.000E+00  0.000E+00
 -21.740  0.000E+00  0.000E+00
 -21.725  0.000E+00  0.000E+00
 -21.710  0.000E+00  0.000E+00
 -21.695  0.000E+00  0.000E+00
 -21.680  0.000E+00  0.000E+00
 -21.665  0.000E+00  0.000E+00
 -21.650  0.000E+00  0.000E+00
 -21.635  0.000E+00  0.000E+00
 -21.620  0.000E+00  0.000E+00
 -21.605  0.000E+00  0.000E+00
 -21.590  0.000E+00  0.000E+00
 -21.575  0.000E+00  0.000E+00
 -21.560  0.000E+00  0.000E+00
 -21.545  0.000E+00  0.000E+00
 -21.530  0.000E+00  0.000E+00
 -21.515  0.000E+00  0.000E+00
 -21.500  0.000E+00  0.000E+00
 -21.485  0.000E+00  0.000E+00
 -21.470  0.000E+00  0.000E+00
 -21.455  0.000E+00  0.000E+00
 -21.440  0.000E+00  0.000E+00
 -21.425  0.000E+00  0.000E+00
 -21.410  0.000E+00  0.000E+00
 -21.395  0.000E+00  0.000E+00
 -21.380  0.000E+00  0.000E+00
 -21.365  0.000E+00  0.000E+00
 -21.350  0.000E+00  0.000E+00
 -21.335  0.000E+00  0.000E+00
 -21.320  0.000E+00  0.000E+00
 -21.305  0.000E+00  0.000E+00
 -21.290  0.000E+00  0.000E+00
 -21.275  0.000E+00  0.000E+00
 -21.260  0.000E+00  0.000E+00
 -21.245  0.000E+00  0.000E+00
 -21.230  0.000E+00  0.000E+00
 -21.215  0.000E+00  0.000E+00
 -21.200  0.000E+00  0.000E+00
 -21.185  0.000E+00  0.000E+00
 -21.170  0.000E+00  0.000E+00
 -21.155  0.000E+00  0.000E+00
 -21.140  0.000E+00  0.000E+00
 -21.125  0.000E+00  0.000E+00
 -21.110  0.000E+00  0.000E+00
 -21.095  0.000E+00  0.000E+00
 -21.080  0.000E+00  0.000E+00
 -21.065  0.000E+00  0.000E+00
 -21.050  0.000E+00  0.000E+00
 -21.035  0.000E+00  0.000E+00
 -21.020  0.000E+00  0.000E+00
 -21.005  0.000E+00  0.000E+00
 -20.990  0.000E+00  0.000E+00
 -20.975  0.000E+00  0.000E+00
 -20.960  0.000E+00  0.000E+00
 -20.945  0.000E+00  0.000E+00
 -20.930  0.000E+00  0.000E+00
 -20.915  0.000E+00  0.000E+00
 -20.900  0.000E+00  0.000E+00
 -20.885  0.000E+00  0.000E+00
 -20.870  0.000E+00  0.000E+00
 -20.855  0.000E+00  0.000E+00
 -20.840  0.000E+00  0.000E+00
 -20.825  0.000E+00  0.000E+00
 -20.810  0.000E+00  0.000E+00
 -20.795  0.000E+00  0.000E+00
 -20.780  0.000E+00  0.000E+00
 -20.765  0.000E+00  0.000E+00
 -20.750  0.000E+00  0.000E+00
 -20.735  0.000E+00  0.000E+00
 -20.720  0.000E+00  0.000E+00
 -20.705  0.000E+00  0.000E+00
 -20.690  0.000E+00  0.000E+00
 -20.675  0.000E+00  0.000E+00
 -20.660  0.000E+00  0.000E+00
 -20.645  0.000E+00  0.000E+00
 -20.630  0.000E+00  0.000E+00
 -20.615  0.000E+00  0.000E+00
 -20.600  0.000E+00  0.000E+00
 -20.585  0.000E+00  0.000E+00
 -20.570  0.000E+00  0.000E+00
 -20.555  0.000E+00  0.000E+00
 -20.540  0.000E+00  0.000E+00
 -20.525  0.000E+00  0.000E+00
 -20.510  0.000E+00  0.000E+00
 -20.495  0.000E+00  0.000E+00
 -20.480  0.000E+00  0.000E+00
 -20.465  0.000E+00  0.000E+00
 -20.450  0.000E+00  0.000E+00
 -20.435  0.000E+00  0.000E+00
 -20.420  0.000E+00  0.000E+00
 -20.405  0.000E+00  0.000E+00
 -20.390  0.000E+00  0.000E+00
 -20.375  0.000E+00  0.000E+00
 -20.360  0.000E+00  0.000E+00
 -20.345  0.000E+00  0.000E+00
 -20.330  0.000E+00  0.000E+00
 -20.315  0.000E+00  0.000E+00
 -20.300  0.000E+00  0.000E+00
 -20.285  0.000E+00  0.000E+00
 -20.270  0.000E+00  0.000E+00
 -20.255  0.000E+00  0.000E+00
 -20.240  0.000E+00  0.000E+00
 -20.225  0.000E+00  0.000E+00
 -20.210  0.000E+00  0.000E+00
 -20.195  0.000E+00  0.000E+00
 -20.180  0.000E+00  0.000E+00
 -20.165  0.000E+00  0.000E+00
 -20.150  0.000E+00  0.000E+00
 -20.135  0.000E+00  0.000E+00
 -20.120  0.000E+00  0.000E+00
 -20.105  0.000E+00  0.000E+00
 -20.090  0.000E+00  0.000E+00
 -20.075  0.000E+00  0.000E+00
 -20.060  0.000E+00  0.000E+00
 -20.045  0.000E+00  0.000E+00
 -20.030  0.000E+00  0.000E+00
 -20.015  0.000E+00  0.000E+00
 -20.000  0.000E+00  0.000E+00
 -19.985  0.000E+00  0.000E+00
 -19.970  0.000E+00  0.000E+00
 -19.955  0.000E+00  0.000E+00
 -19.940  0.000E+00  0.000E+00
 -19.925  0.000E+00  0.000E+00
 -19.910  0.000E+00  0.000E+00
 -19.895  0.000E+00  0.000E+00
 -19.880  0.000E+00  0.000E+00
 -19.865  0.000E+00  0.000E+00
 -19.850  0.000E+00  0.000E+00
 -19.835  0.000E+00  0.000E+00
 -19.820  0.000E+00  0.000E+00
 -19.805  0.000E+00  0.000E+00
 -19.790  0.000E+00  0.000E+00
 -19.775  0.000E+00  0.000E+00
 -19.760  0.000E+00  0.000E+00
 -19.745  0.000E+00  0.000E+00
 -19.730  0.000E+00  0.000E+00
 -19.715  0.000E+00  0.000E+00
 -19.700  0.000E+00  0.000E+00
 -19.685  0.000E+00  0.000E+00
 -19.670  0.000E+00  0.000E+00
 -19.655  0.000E+00  0.000E+00
 -19.640  0.000E+00  0.000E+00
 -19.625  0.000E+00  0.000E+00
 -19.610  0.000E+00  0.000E+00
 -19.595  0.000E+00  0.000E+00
 -19.580  0.000E+00  0.000E+00
 -19.565  0.000E+00  0.000E+00
 -19.550  0.000E+00  0.000E+00
 -19.535  0.000E+00  0.000E+00
 -19.520  0.000E+00  0.000E+00
 -19.505  0.000E+00  0.000E+00
 -19.490  0.000E+00  0.000E+00
 -19.475  0.000E+00  0.000E+00
 -19.460  0.000E+00  0.000E+00
 -19.445  0.000E+00  0.000E+00
 -19.430  0.000E+00  0.000E+00
 -19.415  0.000E+00  0.000E+00
 -19.400  0.000E+00  0.000E+00
 -19.385  0.000E+00  0.000E+00
 -19.370  0.000E+00  0.000E+00
 -19.355  0.000E+00  0.000E+00
 -19.340  0.000E+00  0.000E+00
 -19.325  0.000E+00  0.000E+00
 -19.310  0.000E+00  0.000E+00
 -19.295  0.000E+00  0.000E+00
 -19.280  0.000E+00  0.000E+00
 -19.265  0.000E+00  0.000E+00
 -19.250  0.000E+00  0.000E+00
 -19.235  0.000E+00  0.000E+00
 -19.220  0.000E+00  0.000E+00
 -19.205  0.000E+00  0.000E+00
 -19.190  0.000E+00  0.000E+00
 -19.175  0.000E+00  0.000E+00
 -19.160  0.000E+00  0.000E+00
 -19.145  0.000E+00  0.000E+00
 -19.130  0.000E+00  0.000E+00
 -19.115  0.000E+00  0.000E+00
 -19.100  0.000E+00  0.000E+00
 -19.085  0.000E+00  0.000E+00
 -19.070  0.000E+00  0.000E+00
 -19.055  0.000E+00  0.000E+00
 -19.040  0.000E+00  0.000E+00
 -19.025  0.000E+00  0.000E+00
 -19.010  0.000E+00  0.000E+00
 -18.995  0.000E+00  0.000E+00
 -18.980  0.000E+00  0.000E+00
 -18.965  0.000E+00  0.000E+00
 -18.950  0.000E+00  0.000E+00
 -18.935  0.000E+00  0.000E+00
 -18.920  0.000E+00  0.000E+00
 -18.905  0.000E+00  0.000E+00
 -18.890  0.000E+00  0.000E+00
 -18.875  0.000E+00  0.000E+00
 -18.860  0.000E+00  0.000E+00
 -18.845  0.000E+00  0.000E+00
 -18.830  0.000E+00  0.000E+00
 -18.815  0.000E+00  0.000E+00
 -18.800  0.000E+00  0.000E+00
 -18.785  0.000E+00  0.000E+00
 -18.770  0.000E+00  0.000E+00
 -18.755  0.000E+00  0.000E+00
 -18.740  0.000E+00  0.000E+00
 -18.725  0.000E+00  0.000E+00
 -18.710  0.000E+00  0.000E+00
 -18.695  0.000E+00  0.000E+00
 -18.680  0.000E+00  0.000E+00
 -18.665  0.000E+00  0.000E+00
 -18.650  0.000E+00  0.000E+00
 -18.635  0.000E+00  0.000E+00
 -18.620  0.000E+00  0.000E+00
 -18.605  0.000E+00  0.000E+00
 -18.590  0.000E+00  0.000E+00
 -18.575  0.000E+00  0.000E+00
 -18.560  0.000E+00  0.000E+00
 -18.545  0.000E+00  0.000E+00
 -18.530  0.000E+00  0.000E+00
 -18.515  0.000E+00  0.000E+00
 -18.500  0.000E+00  0.000E+00
 -18.485  0.000E+00  0.000E+00
 -18.470  0.000E+00  0.000E+00
 -18.455  0.000E+00  0.000E+00
 -18.440  0.000E+00  0.000E+00
 -18.425  0.000E+00  0.000E+00
 -18.410  0.000E+00  0.000E+00
 -18.395  0.000E+00  0.000E+00
 -18.380  0.000E+00  0.000E+00
 -18.365  0.000E+00  0.000E+00
 -18.350  0.000E+00  0.000E+00
 -18.335  0.000E+00  0.000E+00
 -18.320  0.000E+00  0.000E+00
 -18.305  0.000E+00  0.000E+00
 -18.290  0.000E+00  0.000E+00
 -18.275  0.000E+00  0.000E+00
 -18.260  0.000E+00  0.000E+00
 -18.245  0.000E+00  0.000E+00
 -18.230  0.000E+00  0.000E+00
 -18.215  0.000E+00  0.000E+00
 -18.200  0.000E+00  0.000E+00
 -18.185  0.000E+00  0.000E+00
 -18.170  0.000E+00  0.000E+00
 -18.155  0.000E+00  0.000E+00
 -18.140  0.000E+00  0.000E+00
 -18.125  0.000E+00  0.000E+00
 -18.110  0.000E+00  0.000E+00
 -18.095  0.000E+00  0.000E+00
 -18.080  0.000E+00  0.000E+00
 -18.065  0.000E+00  0.000E+00
 -18.050  0.000E+00  0.000E+00
 -18.035  0.000E+00  0.000E+00
 -18.020  0.000E+00  0.000E+00
 -18.005  0.000E+00  0.000E+00
 -17.990  0.000E+00  0.000E+00
 -17.975  0.000E+00  0.000E+00
 -17.960  0.000E+00  0.000E+00
 -17.945  0.000E+00  0.000E+00
 -17.930  0.000E+00  0.000E+00
 -17.915  0.000E+00  0.000E+00
 -17.900  0.000E+00  0.000E+00
 -17.885  0.000E+00  0.000E+00
 -17.870  0.000E+00  0.000E+00
 -17.855  0.000E+00  0.000E+00
 -17.840  0.000E+00  0.000E+00
 -17.825  0.000E+00  0.000E+00
 -17.810  0.000E+00  0.000E+00
 -17.795  0.000E+00  0.000E+00
 -17.780  0.000E+00  0.000E+00
 -17.765  0.000E+00  0.000E+00
 -17.750  0.000E+00  0.000E+00
 -17.735  0.000E+00  0.000E+00
 -17.720  0.000E+00  0.000E+00
 -17.705  0.000E+00  0.000E+00
 -17.690  0.000E+00  0.000E+00
 -17.675  0.000E+00  0.000E+00
 -17.660  0.000E+00  0.000E+00
 -17.645  0.000E+00  0.000E+00
 -17.630  0.000E+00  0.000E+00
 -17.615  0.000E+00  0.000E+00
 -17.600  0.000E+00  0.000E+00
 -17.585  0.000E+00  0.000E+00
 -17.570  0.000E+00  0.000E+00
 -17.555  0.000E+00  0.000E+00
 -17.540  0.000E+00  0.000E+00
 -17.525  0.000E+00  0.000E+00
 -17.510  0.000E+00  0.000E+00
 -17.495  0.000E+00  0.000E+00
 -17.480  0.000E+00  0.000E+00
 -17.465  0.000E+00  0.000E+00
 -17.450  0.000E+00  0.000E+00
 -17.435  0.000E+00  0.000E+00
 -17.420  0.000E+00  0.000E+00
 -17.405  0.000E+00  0.000E+00
 -17.390  0.000E+00  0.000E+00
 -17.375  0.000E+00  0.000E+00
 -17.360  0.000E+00  0.000E+00
 -17.345  0.000E+00  0.000E+00
 -17.330  0.000E+00  0.000E+00
 -17.315  0.000E+00  0.000E+00
 -17.300  0.000E+00  0.000E+00
 -17.285  0.000E+00  0.000E+00
 -17.270  0.000E+00  0.000E+00
 -17.255  0.000E+00  0.000E+00
 -17.240  0.000E+00  0.000E+00
 -17.225  0.000E+00  0.000E+00
 -17.210  0.000E+00  0.000E+00
 -17.195  0.000E+00  0.000E+00
 -17.180  0.000E+00  0.000E+00
 -17.165  0.000E+00  0.000E+00
 -17.150  0.000E+00  0.000E+00
 -17.135  0.000E+00  0.000E+00
 -17.120  0.000E+00  0.000E+00
 -17.105  0.000E+00  0.000E+00
 -17.090  0.000E+00  0.000E+00
 -17.075  0.000E+00  0.000E+00
 -17.060  0.000E+00  0.000E+00
 -17.045  0.000E+00  0.000E+00
 -17.030  0.000E+00  0.000E+00
 -17.015  0.138E-16  0.138E-16
 -17.000  0.101E-14  0.101E-14
 -16.985  0.525E-14  0.525E-14
 -16.970  0.179E-13  0.179E-13
 -16.955  0.554E-13  0.554E-13
 -16.940  0.161E-12  0.161E-12
 -16.925  0.455E-12  0.455E-12
 -16.910  0.125E-11  0.125E-11
 -16.895  0.333E-11  0.333E-11
 -16.880  0.870E-11  0.870E-11
 -16.865  0.222E-10  0.222E-10
 -16.850  0.552E-10  0.552E-10
 -16.835  0.134E-09  0.134E-09
 -16.820  0.319E-09  0.319E-09
 -16.805  0.740E-09  0.740E-09
 -16.790  0.168E-08  0.168E-08
 -16.775  0.372E-08  0.372E-08
 -16.760  0.805E-08  0.805E-08
 -16.745  0.170E-07  0.170E-07
 -16.730  0.352E-07  0.352E-07
 -16.715  0.711E-07  0.711E-07
 -16.700  0.140E-06  0.140E-06
 -16.685  0.271E-06  0.271E-06
 -16.670  0.511E-06  0.511E-06
 -16.655  0.941E-06  0.941E-06
 -16.640  0.170E-05  0.170E-05
 -16.625  0.299E-05  0.299E-05
 -16.610  0.515E-05  0.515E-05
 -16.595  0.867E-05  0.867E-05
 -16.580  0.143E-04  0.143E-04
 -16.565  0.230E-04  0.230E-04
 -16.550  0.362E-04  0.362E-04
 -16.535  0.557E-04  0.557E-04
 -16.520  0.840E-04  0.840E-04
 -16.505  0.124E-03  0.124E-03
 -16.490  0.179E-03  0.179E-03
 -16.475  0.252E-03  0.252E-03
 -16.460  0.348E-03  0.348E-03
 -16.445  0.471E-03  0.471E-03
 -16.430  0.623E-03  0.623E-03
 -16.415  0.807E-03  0.807E-03
 -16.400  0.103E-02  0.103E-02
 -16.385  0.127E-02  0.127E-02
 -16.370  0.155E-02  0.155E-02
 -16.355  0.186E-02  0.186E-02
 -16.340  0.218E-02  0.218E-02
 -16.325  0.251E-02  0.251E-02
 -16.310  0.283E-02  0.283E-02
 -16.295  0.315E-02  0.315E-02
 -16.280  0.344E-02  0.344E-02
 -16.265  0.370E-02  0.370E-02
 -16.250  0.393E-02  0.393E-02
 -16.235  0.411E-02  0.411E-02
 -16.220  0.425E-02  0.425E-02
 -16.205  0.435E-02  0.435E-02
 -16.190  0.440E-02  0.440E-02
 -16.175  0.441E-02  0.441E-02
 -16.160  0.439E-02  0.439E-02
 -16.145  0.433E-02  0.433E-02
 -16.130  0.423E-02  0.423E-02
 -16.115  0.409E-02  0.409E-02
 -16.100  0.393E-02  0.393E-02
 -16.085  0.373E-02  0.373E-02
 -16.070  0.350E-02  0.350E-02
 -16.055  0.325E-02  0.325E-02
 -16.040  0.298E-02  0.298E-02
 -16.025  0.270E-02  0.270E-02
 -16.010  0.242E-02  0.242E-02
 -15.995  0.215E-02  0.215E-02
 -15.980  0.189E-02  0.189E-02
 -15.965  0.164E-02  0.164E-02
 -15.950  0.143E-02  0.143E-02
 -15.935  0.124E-02  0.124E-02
 -15.920  0.107E-02  0.107E-02
 -15.905  0.938E-03  0.938E-03
 -15.890  0.826E-03  0.826E-03
 -15.875  0.734E-03  0.734E-03
 -15.860  0.660E-03  0.660E-03
 -15.845  0.597E-03  0.597E-03
 -15.830  0.544E-03  0.544E-03
 -15.815  0.495E-03  0.495E-03
 -15.800  0.450E-03  0.450E-03
 -15.785  0.407E-03  0.407E-03
 -15.770  0.364E-03  0.364E-03
 -15.755  0.321E-03  0.321E-03
 -15.740  0.280E-03  0.280E-03
 -15.725  0.240E-03  0.240E-03
 -15.710  0.201E-03  0.201E-03
 -15.695  0.166E-03  0.166E-03
 -15.680  0.135E-03  0.135E-03
 -15.665  0.107E-03  0.107E-03
 -15.650  0.829E-04  0.829E-04
 -15.635  0.630E-04  0.630E-04
 -15.620  0.469E-04  0.469E-04
 -15.605  0.341E-04  0.341E-04
 -15.590  0.243E-04  0.243E-04
 -15.575  0.169E-04  0.169E-04
 -15.560  0.115E-04  0.115E-04
 -15.545  0.767E-05  0.767E-05
 -15.530  0.499E-05  0.499E-05
 -15.515  0.317E-05  0.317E-05
 -15.500  0.197E-05  0.197E-05
 -15.485  0.120E-05  0.120E-05
 -15.470  0.710E-06  0.710E-06
 -15.455  0.411E-06  0.411E-06
 -15.440  0.233E-06  0.233E-06
 -15.425  0.129E-06  0.129E-06
 -15.410  0.696E-07  0.696E-07
 -15.395  0.368E-07  0.368E-07
 -15.380  0.189E-07  0.189E-07
 -15.365  0.954E-08  0.954E-08
 -15.350  0.469E-08  0.469E-08
 -15.335  0.225E-08  0.225E-08
 -15.320  0.106E-08  0.106E-08
 -15.305  0.484E-09  0.484E-09
 -15.290  0.216E-09  0.216E-09
 -15.275  0.945E-10  0.945E-10
 -15.260  0.403E-10  0.403E-10
 -15.245  0.168E-10  0.168E-10
 -15.230  0.682E-11  0.682E-11
 -15.215  0.271E-11  0.271E-11
 -15.200  0.105E-11  0.105E-11
 -15.185  0.397E-12  0.397E-12
 -15.170  0.147E-12  0.147E-12
 -15.155  0.529E-13  0.529E-13
 -15.140  0.186E-13  0.186E-13
 -15.125  0.623E-14  0.623E-14
 -15.110  0.202E-14  0.202E-14
 -15.095  0.505E-15  0.505E-15
 -15.080  0.000E+00  0.000E+00
 -15.065  0.000E+00  0.000E+00
 -15.050  0.000E+00  0.000E+00
 -15.035  0.000E+00  0.000E+00
 -15.020  0.000E+00  0.000E+00
 -15.005  0.000E+00  0.000E+00
 -14.990  0.000E+00  0.000E+00
 -14.975  0.000E+00  0.000E+00
 -14.960  0.000E+00  0.000E+00
 -14.945  0.000E+00  0.000E+00
 -14.930  0.000E+00  0.000E+00
 -14.915  0.000E+00  0.000E+00
 -14.900  0.000E+00  0.000E+00
 -14.885  0.000E+00  0.000E+00
 -14.870  0.000E+00  0.000E+00
 -14.855  0.000E+00  0.000E+00
 -14.840  0.000E+00  0.000E+00
 -14.825  0.000E+00  0.000E+00
 -14.810  0.000E+00  0.000E+00
 -14.795  0.000E+00  0.000E+00
 -14.780  0.000E+00  0.000E+00
 -14.765  0.000E+00  0.000E+00
 -14.750  0.000E+00  0.000E+00
 -14.735  0.000E+00  0.000E+00
 -14.720  0.000E+00  0.000E+00
 -14.705  0.000E+00  0.000E+00
 -14.690  0.000E+00  0.000E+00
 -14.675  0.000E+00  0.000E+00
 -14.660  0.000E+00  0.000E+00
 -14.645  0.155E-16  0.155E-16
 -14.630  0.743E-16  0.743E-16
 -14.615  0.250E-15  0.250E-15
 -14.600  0.782E-15  0.782E-15
 -14.585  0.226E-14  0.226E-14
 -14.570  0.636E-14  0.636E-14
 -14.555  0.176E-13  0.176E-13
 -14.540  0.472E-13  0.472E-13
 -14.525  0.124E-12  0.124E-12
 -14.510  0.317E-12  0.317E-12
 -14.495  0.793E-12  0.793E-12
 -14.480  0.194E-11  0.194E-11
 -14.465  0.463E-11  0.463E-11
 -14.450  0.108E-10  0.108E-10
 -14.435  0.247E-10  0.247E-10
 -14.420  0.552E-10  0.552E-10
 -14.405  0.121E-09  0.121E-09
 -14.390  0.258E-09  0.258E-09
 -14.375  0.541E-09  0.541E-09
 -14.360  0.111E-08  0.111E-08
 -14.345  0.222E-08  0.222E-08
 -14.330  0.437E-08  0.437E-08
 -14.315  0.842E-08  0.842E-08
 -14.300  0.159E-07  0.159E-07
 -14.285  0.293E-07  0.293E-07
 -14.270  0.532E-07  0.532E-07
 -14.255  0.946E-07  0.946E-07
 -14.240  0.165E-06  0.165E-06
 -14.225  0.282E-06  0.282E-06
 -14.210  0.474E-06  0.474E-06
 -14.195  0.782E-06  0.782E-06
 -14.180  0.127E-05  0.127E-05
 -14.165  0.202E-05  0.202E-05
 -14.150  0.316E-05  0.316E-05
 -14.135  0.486E-05  0.486E-05
 -14.120  0.736E-05  0.736E-05
 -14.105  0.110E-04  0.110E-04
 -14.090  0.161E-04  0.161E-04
 -14.075  0.232E-04  0.232E-04
 -14.060  0.329E-04  0.329E-04
 -14.045  0.460E-04  0.460E-04
 -14.030  0.633E-04  0.633E-04
 -14.015  0.859E-04  0.859E-04
 -14.000  0.115E-03  0.115E-03
 -13.985  0.151E-03  0.151E-03
 -13.970  0.196E-03  0.196E-03
 -13.955  0.252E-03  0.252E-03
 -13.940  0.318E-03  0.318E-03
 -13.925  0.396E-03  0.396E-03
 -13.910  0.487E-03  0.487E-03
 -13.895  0.592E-03  0.592E-03
 -13.880  0.709E-03  0.709E-03
 -13.865  0.840E-03  0.840E-03
 -13.850  0.982E-03  0.982E-03
 -13.835  0.113E-02  0.113E-02
 -13.820  0.129E-02  0.129E-02
 -13.805  0.146E-02  0.146E-02
 -13.790  0.162E-02  0.162E-02
 -13.775  0.179E-02  0.179E-02
 -13.760  0.195E-02  0.195E-02
 -13.745  0.210E-02  0.210E-02
 -13.730  0.223E-02  0.223E-02
 -13.715  0.235E-02  0.235E-02
 -13.700  0.245E-02  0.245E-02
 -13.685  0.253E-02  0.253E-02
 -13.670  0.259E-02  0.259E-02
 -13.655  0.262E-02  0.262E-02
 -13.640  0.263E-02  0.263E-02
 -13.625  0.262E-02  0.262E-02
 -13.610  0.259E-02  0.259E-02
 -13.595  0.254E-02  0.254E-02
 -13.580  0.247E-02  0.247E-02
 -13.565  0.239E-02  0.239E-02
 -13.550  0.230E-02  0.230E-02
 -13.535  0.220E-02  0.220E-02
 -13.520  0.209E-02  0.209E-02
 -13.505  0.197E-02  0.197E-02
 -13.490  0.185E-02  0.185E-02
 -13.475  0.174E-02  0.174E-02
 -13.460  0.162E-02  0.162E-02
 -13.445  0.151E-02  0.151E-02
 -13.430  0.141E-02  0.141E-02
 -13.415  0.131E-02  0.131E-02
 -13.400  0.123E-02  0.123E-02
 -13.385  0.115E-02  0.115E-02
 -13.370  0.108E-02  0.108E-02
 -13.355  0.102E-02  0.102E-02
 -13.340  0.967E-03  0.967E-03
 -13.325  0.922E-03  0.922E-03
 -13.310  0.882E-03  0.882E-03
 -13.295  0.849E-03  0.849E-03
 -13.280  0.821E-03  0.821E-03
 -13.265  0.798E-03  0.798E-03
 -13.250  0.778E-03  0.778E-03
 -13.235  0.761E-03  0.761E-03
 -13.220  0.744E-03  0.744E-03
 -13.205  0.728E-03  0.728E-03
 -13.190  0.709E-03  0.709E-03
 -13.175  0.687E-03  0.687E-03
 -13.160  0.661E-03  0.661E-03
 -13.145  0.630E-03  0.630E-03
 -13.130  0.593E-03  0.593E-03
 -13.115  0.551E-03  0.551E-03
 -13.100  0.506E-03  0.506E-03
 -13.085  0.457E-03  0.457E-03
 -13.070  0.407E-03  0.407E-03
 -13.055  0.358E-03  0.358E-03
 -13.040  0.312E-03  0.312E-03
 -13.025  0.270E-03  0.270E-03
 -13.010  0.236E-03  0.236E-03
 -12.995  0.210E-03  0.210E-03
 -12.980  0.195E-03  0.195E-03
 -12.965  0.193E-03  0.193E-03
 -12.950  0.206E-03  0.206E-03
 -12.935  0.236E-03  0.236E-03
 -12.920  0.284E-03  0.284E-03
 -12.905  0.353E-03  0.353E-03
 -12.890  0.444E-03  0.444E-03
 -12.875  0.558E-03  0.558E-03
 -12.860  0.697E-03  0.697E-03
 -12.845  0.861E-03  0.861E-03
 -12.830  0.105E-02  0.105E-02
 -12.815  0.126E-02  0.126E-02
 -12.800  0.150E-02  0.150E-02
 -12.785  0.176E-02  0.176E-02
 -12.770  0.204E-02  0.204E-02
 -12.755  0.234E-02  0.234E-02
 -12.740  0.265E-02  0.265E-02
 -12.725  0.297E-02  0.297E-02
 -12.710  0.329E-02  0.329E-02
 -12.695  0.362E-02  0.362E-02
 -12.680  0.394E-02  0.394E-02
 -12.665  0.424E-02  0.424E-02
 -12.650  0.453E-02  0.453E-02
 -12.635  0.479E-02  0.479E-02
 -12.620  0.501E-02  0.501E-02
 -12.605  0.520E-02  0.520E-02
 -12.590  0.534E-02  0.534E-02
 -12.575  0.543E-02  0.543E-02
 -12.560  0.546E-02  0.546E-02
 -12.545  0.545E-02  0.545E-02
 -12.530  0.538E-02  0.538E-02
 -12.515  0.526E-02  0.526E-02
 -12.500  0.510E-02  0.510E-02
 -12.485  0.491E-02  0.491E-02
 -12.470  0.470E-02  0.470E-02
 -12.455  0.447E-02  0.447E-02
 -12.440  0.423E-02  0.423E-02
 -12.425  0.398E-02  0.398E-02
 -12.410  0.375E-02  0.375E-02
 -12.395  0.352E-02  0.352E-02
 -12.380  0.330E-02  0.330E-02
 -12.365  0.309E-02  0.309E-02
 -12.350  0.289E-02  0.289E-02
 -12.335  0.270E-02  0.270E-02
 -12.320  0.251E-02  0.251E-02
 -12.305  0.233E-02  0.233E-02
 -12.290  0.215E-02  0.215E-02
 -12.275  0.197E-02  0.197E-02
 -12.260  0.179E-02  0.179E-02
 -12.245  0.161E-02  0.161E-02
 -12.230  0.144E-02  0.144E-02
 -12.215  0.127E-02  0.127E-02
 -12.200  0.111E-02  0.111E-02
 -12.185  0.954E-03  0.954E-03
 -12.170  0.811E-03  0.811E-03
 -12.155  0.680E-03  0.680E-03
 -12.140  0.562E-03  0.562E-03
 -12.125  0.458E-03  0.458E-03
 -12.110  0.368E-03  0.368E-03
 -12.095  0.291E-03  0.291E-03
 -12.080  0.227E-03  0.227E-03
 -12.065  0.174E-03  0.174E-03
 -12.050  0.132E-03  0.132E-03
 -12.035  0.979E-04  0.979E-04
 -12.020  0.717E-04  0.717E-04
 -12.005  0.516E-04  0.516E-04
 -11.990  0.366E-04  0.366E-04
 -11.975  0.255E-04  0.255E-04
 -11.960  0.174E-04  0.174E-04
 -11.945  0.117E-04  0.117E-04
 -11.930  0.776E-05  0.776E-05
 -11.915  0.504E-05  0.504E-05
 -11.900  0.322E-05  0.322E-05
 -11.885  0.202E-05  0.202E-05
 -11.870  0.124E-05  0.124E-05
 -11.855  0.749E-06  0.749E-06
 -11.840  0.444E-06  0.444E-06
 -11.825  0.258E-06  0.258E-06
 -11.810  0.147E-06  0.147E-06
 -11.795  0.820E-07  0.820E-07
 -11.780  0.449E-07  0.449E-07
 -11.765  0.241E-07  0.241E-07
 -11.750  0.126E-07  0.126E-07
 -11.735  0.650E-08  0.650E-08
 -11.720  0.328E-08  0.328E-08
 -11.705  0.162E-08  0.162E-08
 -11.690  0.781E-09  0.781E-09
 -11.675  0.369E-09  0.369E-09
 -11.660  0.171E-09  0.171E-09
 -11.645  0.774E-10  0.774E-10
 -11.630  0.343E-10  0.343E-10
 -11.615  0.148E-10  0.148E-10
 -11.600  0.629E-11  0.629E-11
 -11.585  0.261E-11  0.261E-11
 -11.570  0.106E-11  0.106E-11
 -11.555  0.418E-12  0.418E-12
 -11.540  0.162E-12  0.162E-12
 -11.525  0.611E-13  0.611E-13
 -11.510  0.226E-13  0.226E-13
 -11.495  0.810E-14  0.810E-14
 -11.480  0.277E-14  0.277E-14
 -11.465  0.935E-15  0.935E-15
 -11.450  0.287E-15  0.287E-15
 -11.435  0.728E-16  0.728E-16
 -11.420  0.200E-16  0.200E-16
 -11.405  0.000E+00  0.000E+00
 -11.390  0.000E+00  0.000E+00
 -11.375  0.000E+00  0.000E+00
 -11.360  0.000E+00  0.000E+00
 -11.345  0.000E+00  0.000E+00
 -11.330  0.000E+00  0.000E+00
 -11.315  0.000E+00  0.000E+00
 -11.300  0.000E+00  0.000E+00
 -11.285  0.000E+00  0.000E+00
 -11.270  0.000E+00  0.000E+00
 -11.255  0.000E+00  0.000E+00
 -11.240  0.000E+00  0.000E+00
 -11.225  0.000E+00  0.000E+00
 -11.210  0.000E+00  0.000E+00
 -11.195  0.000E+00  0.000E+00
 -11.180  0.000E+00  0.000E+00
 -11.165  0.000E+00  0.000E+00
 -11.150  0.000E+00  0.000E+00
 -11.135  0.000E+00  0.000E+00
 -11.120  0.000E+00  0.000E+00
 -11.105  0.000E+00  0.000E+00
 -11.090  0.000E+00  0.000E+00
 -11.075  0.000E+00  0.000E+00
 -11.060  0.000E+00  0.000E+00
 -11.045  0.000E+00  0.000E+00
 -11.030  0.000E+00  0.000E+00
 -11.015  0.000E+00  0.000E+00
 -11.000  0.000E+00  0.000E+00
 -10.985  0.000E+00  0.000E+00
 -10.970  0.000E+00  0.000E+00
 -10.955  0.000E+00  0.000E+00
 -10.940  0.000E+00  0.000E+00
 -10.925  0.000E+00  0.000E+00
 -10.910  0.000E+00  0.000E+00
 -10.895  0.000E+00  0.000E+00
 -10.880  0.000E+00  0.000E+00
 -10.865  0.000E+00  0.000E+00
 -10.850  0.000E+00  0.000E+00
 -10.835  0.000E+00  0.000E+00
 -10.820  0.000E+00  0.000E+00
 -10.805  0.000E+00  0.000E+00
 -10.790  0.000E+00  0.000E+00
 -10.775  0.000E+00  0.000E+00
 -10.760  0.000E+00  0.000E+00
 -10.745  0.000E+00  0.000E+00
 -10.730  0.000E+00  0.000E+00
 -10.715  0.000E+00  0.000E+00
 -10.700  0.000E+00  0.000E+00
 -10.685  0.000E+00  0.000E+00
 -10.670  0.000E+00  0.000E+00
 -10.655  0.000E+00  0.000E+00
 -10.640  0.000E+00  0.000E+00
 -10.625  0.000E+00  0.000E+00
 -10.610  0.000E+00  0.000E+00
 -10.595  0.000E+00  0.000E+00
 -10.580  0.000E+00  0.000E+00
 -10.565  0.000E+00  0.000E+00
 -10.550  0.000E+00  0.000E+00
 -10.535  0.000E+00  0.000E+00
 -10.520  0.000E+00  0.000E+00
 -10.505  0.000E+00  0.000E+00
 -10.490  0.000E+00  0.000E+00
 -10.475  0.000E+00  0.000E+00
 -10.460  0.000E+00  0.000E+00
 -10.445  0.000E+00  0.000E+00
 -10.430  0.000E+00  0.000E+00
 -10.415  0.000E+00  0.000E+00
 -10.400  0.000E+00  0.000E+00
 -10.385  0.000E+00  0.000E+00
 -10.370  0.000E+00  0.000E+00
 -10.355  0.000E+00  0.000E+00
 -10.340  0.000E+00  0.000E+00
 -10.325  0.000E+00  0.000E+00
 -10.310  0.000E+00  0.000E+00
 -10.295  0.000E+00  0.000E+00
 -10.280  0.000E+00  0.000E+00
 -10.265  0.000E+00  0.000E+00
 -10.250  0.000E+00  0.000E+00
 -10.235  0.000E+00  0.000E+00
 -10.220  0.000E+00  0.000E+00
 -10.205  0.000E+00  0.000E+00
 -10.190  0.000E+00  0.000E+00
 -10.175  0.000E+00  0.000E+00
 -10.160  0.000E+00  0.000E+00
 -10.145  0.000E+00  0.000E+00
 -10.130  0.000E+00  0.000E+00
 -10.115  0.000E+00  0.000E+00
 -10.100  0.000E+00  0.000E+00
 -10.085  0.000E+00  0.000E+00
 -10.070  0.000E+00  0.000E+00
 -10.055  0.000E+00  0.000E+00
 -10.040  0.000E+00  0.000E+00
 -10.025  0.000E+00  0.000E+00
 -10.010  0.000E+00  0.000E+00
  -9.995  0.000E+00  0.000E+00
  -9.980  0.000E+00  0.000E+00
  -9.965  0.000E+00  0.000E+00
  -9.950  0.000E+00  0.000E+00
  -9.935  0.000E+00  0.000E+00
  -9.920  0.000E+00  0.000E+00
  -9.905  0.000E+00  0.000E+00
  -9.890  0.000E+00  0.000E+00
  -9.875  0.000E+00  0.000E+00
  -9.860  0.000E+00  0.000E+00
  -9.845  0.000E+00  0.000E+00
  -9.830  0.000E+00  0.000E+00
  -9.815  0.000E+00  0.000E+00
  -9.800  0.000E+00  0.000E+00
  -9.785  0.000E+00  0.000E+00
  -9.770  0.000E+00  0.000E+00
  -9.755  0.000E+00  0.000E+00
  -9.740  0.000E+00  0.000E+00
  -9.725  0.000E+00  0.000E+00
  -9.710  0.000E+00  0.000E+00
  -9.695  0.000E+00  0.000E+00
  -9.680  0.000E+00  0.000E+00
  -9.665  0.000E+00  0.000E+00
  -9.650  0.000E+00  0.000E+00
  -9.635  0.000E+00  0.000E+00
  -9.620  0.000E+00  0.000E+00
  -9.605  0.000E+00  0.000E+00
  -9.590  0.000E+00  0.000E+00
  -9.575  0.000E+00  0.000E+00
  -9.560  0.000E+00  0.000E+00
  -9.545  0.000E+00  0.000E+00
  -9.530  0.000E+00  0.000E+00
  -9.515  0.000E+00  0.000E+00
  -9.500  0.000E+00  0.000E+00
  -9.485  0.000E+00  0.000E+00
  -9.470  0.000E+00  0.000E+00
  -9.455  0.000E+00  0.000E+00
  -9.440  0.000E+00  0.000E+00
  -9.425  0.000E+00  0.000E+00
  -9.410  0.000E+00  0.000E+00
  -9.395  0.000E+00  0.000E+00
  -9.380  0.000E+00  0.000E+00
  -9.365  0.000E+00  0.000E+00
  -9.350  0.000E+00  0.000E+00
  -9.335  0.000E+00  0.000E+00
  -9.320  0.000E+00  0.000E+00
  -9.305  0.000E+00  0.000E+00
  -9.290  0.000E+00  0.000E+00
  -9.275  0.000E+00  0.000E+00
  -9.260  0.000E+00  0.000E+00
  -9.245  0.000E+00  0.000E+00
  -9.230  0.000E+00  0.000E+00
  -9.215  0.000E+00  0.000E+00
  -9.200  0.000E+00  0.000E+00
  -9.185  0.000E+00  0.000E+00
  -9.170  0.000E+00  0.000E+00
  -9.155  0.000E+00  0.000E+00
  -9.140  0.000E+00  0.000E+00
  -9.125  0.000E+00  0.000E+00
  -9.110  0.000E+00  0.000E+00
  -9.095  0.000E+00  0.000E+00
  -9.080  0.000E+00  0.000E+00
  -9.065  0.000E+00  0.000E+00
  -9.050  0.000E+00  0.000E+00
  -9.035  0.000E+00  0.000E+00
  -9.020  0.000E+00  0.000E+00
  -9.005  0.000E+00  0.000E+00
  -8.990  0.000E+00  0.000E+00
  -8.975  0.000E+00  0.000E+00
  -8.960  0.000E+00  0.000E+00
  -8.945  0.000E+00  0.000E+00
  -8.930  0.000E+00  0.000E+00
  -8.915  0.000E+00  0.000E+00
  -8.900  0.000E+00  0.000E+00
  -8.885  0.000E+00  0.000E+00
  -8.870  0.000E+00  0.000E+00
  -8.855  0.000E+00  0.000E+00
  -8.840  0.000E+00  0.000E+00
  -8.825  0.000E+00  0.000E+00
  -8.810  0.000E+00  0.000E+00
  -8.795  0.000E+00  0.000E+00
  -8.780  0.000E+00  0.000E+00
  -8.765  0.000E+00  0.000E+00
  -8.750  0.000E+00  0.000E+00
  -8.735  0.000E+00  0.000E+00
  -8.720  0.000E+00  0.000E+00
  -8.705  0.000E+00  0.000E+00
  -8.690  0.000E+00  0.000E+00
  -8.675  0.000E+00  0.000E+00
  -8.660  0.000E+00  0.000E+00
  -8.645  0.000E+00  0.000E+00
  -8.630  0.000E+00  0.000E+00
  -8.615  0.000E+00  0.000E+00
  -8.600  0.000E+00  0.000E+00
  -8.585  0.000E+00  0.000E+00
  -8.570  0.000E+00  0.000E+00
  -8.555  0.000E+00  0.000E+00
  -8.540  0.000E+00  0.000E+00
  -8.525  0.000E+00  0.000E+00
  -8.510  0.000E+00  0.000E+00
  -8.495  0.000E+00  0.000E+00
  -8.480  0.000E+00  0.000E+00
  -8.465  0.000E+00  0.000E+00
  -8.450  0.000E+00  0.000E+00
  -8.435  0.000E+00  0.000E+00
  -8.420  0.000E+00  0.000E+00
  -8.405  0.000E+00  0.000E+00
  -8.390  0.000E+00  0.000E+00
  -8.375  0.000E+00  0.000E+00
  -8.360  0.000E+00  0.000E+00
  -8.345  0.000E+00  0.000E+00
  -8.330  0.000E+00  0.000E+00
  -8.315  0.000E+00  0.000E+00
  -8.300  0.000E+00  0.000E+00
  -8.285  0.000E+00  0.000E+00
  -8.270  0.000E+00  0.000E+00
  -8.255  0.000E+00  0.000E+00
  -8.240  0.000E+00  0.000E+00
  -8.225  0.000E+00  0.000E+00
  -8.210  0.000E+00  0.000E+00
  -8.195  0.000E+00  0.000E+00
  -8.180  0.000E+00  0.000E+00
  -8.165  0.000E+00  0.000E+00
  -8.150  0.000E+00  0.000E+00
  -8.135  0.000E+00  0.000E+00
  -8.120  0.000E+00  0.000E+00
  -8.105  0.000E+00  0.000E+00
  -8.090  0.000E+00  0.000E+00
  -8.075  0.000E+00  0.000E+00
  -8.060  0.000E+00  0.000E+00
  -8.045  0.000E+00  0.000E+00
  -8.030  0.000E+00  0.000E+00
  -8.015  0.000E+00  0.000E+00
  -8.000  0.000E+00  0.000E+00
  -7.985  0.000E+00  0.000E+00
  -7.970  0.000E+00  0.000E+00
  -7.955  0.000E+00  0.000E+00
  -7.940  0.000E+00  0.000E+00
  -7.925  0.000E+00  0.000E+00
  -7.910  0.000E+00  0.000E+00
  -7.895  0.000E+00  0.000E+00
  -7.880  0.000E+00  0.000E+00
  -7.865  0.000E+00  0.000E+00
  -7.850  0.000E+00  0.000E+00
  -7.835  0.000E+00  0.000E+00
  -7.820  0.000E+00  0.000E+00
  -7.805  0.000E+00  0.000E+00
  -7.790  0.000E+00  0.000E+00
  -7.775  0.000E+00  0.000E+00
  -7.760  0.000E+00  0.000E+00
  -7.745  0.000E+00  0.000E+00
  -7.730  0.000E+00  0.000E+00
  -7.715  0.000E+00  0.000E+00
  -7.700  0.000E+00  0.000E+00
  -7.685  0.000E+00  0.000E+00
  -7.670  0.000E+00  0.000E+00
  -7.655  0.000E+00  0.000E+00
  -7.640  0.000E+00  0.000E+00
  -7.625  0.000E+00  0.000E+00
  -7.610  0.000E+00  0.000E+00
  -7.595  0.000E+00  0.000E+00
  -7.580  0.000E+00  0.000E+00
  -7.565  0.000E+00  0.000E+00
  -7.550  0.000E+00  0.000E+00
  -7.535  0.000E+00  0.000E+00
  -7.520  0.000E+00  0.000E+00
  -7.505  0.000E+00  0.000E+00
  -7.490  0.000E+00  0.000E+00
  -7.475  0.000E+00  0.000E+00
  -7.460  0.000E+00  0.000E+00
  -7.445  0.000E+00  0.000E+00
  -7.430  0.000E+00  0.000E+00
  -7.415  0.000E+00  0.000E+00
  -7.400  0.000E+00  0.000E+00
  -7.385  0.000E+00  0.000E+00
  -7.370  0.000E+00  0.000E+00
  -7.355  0.000E+00  0.000E+00
  -7.340  0.000E+00  0.000E+00
  -7.325  0.000E+00  0.000E+00
  -7.310  0.000E+00  0.000E+00
  -7.295  0.000E+00  0.000E+00
  -7.280  0.000E+00  0.000E+00
  -7.265  0.000E+00  0.000E+00
  -7.250  0.000E+00  0.000E+00
  -7.235  0.000E+00  0.000E+00
  -7.220  0.000E+00  0.000E+00
  -7.205  0.000E+00  0.000E+00
  -7.190  0.000E+00  0.000E+00
  -7.175  0.000E+00  0.000E+00
  -7.160  0.000E+00  0.000E+00
  -7.145  0.000E+00  0.000E+00
  -7.130  0.000E+00  0.000E+00
  -7.115  0.000E+00  0.000E+00
  -7.100  0.000E+00  0.000E+00
  -7.085  0.000E+00  0.000E+00
  -7.070  0.000E+00  0.000E+00
  -7.055  0.000E+00  0.000E+00
  -7.040  0.000E+00  0.000E+00
  -7.025  0.000E+00  0.000E+00
  -7.010  0.000E+00  0.000E+00
  -6.995  0.000E+00  0.000E+00
  -6.980  0.000E+00  0.000E+00
  -6.965  0.000E+00  0.000E+00
  -6.950  0.000E+00  0.000E+00
  -6.935  0.000E+00  0.000E+00
  -6.920  0.000E+00  0.000E+00
  -6.905  0.000E+00  0.000E+00
  -6.890  0.000E+00  0.000E+00
  -6.875  0.000E+00  0.000E+00
  -6.860  0.000E+00  0.000E+00
  -6.845  0.000E+00  0.000E+00
  -6.830  0.000E+00  0.000E+00
  -6.815  0.000E+00  0.000E+00
  -6.800  0.000E+00  0.000E+00
  -6.785  0.000E+00  0.000E+00
  -6.770  0.000E+00  0.000E+00
  -6.755  0.000E+00  0.000E+00
  -6.740  0.000E+00  0.000E+00
  -6.725  0.000E+00  0.000E+00
  -6.710  0.000E+00  0.000E+00
  -6.695  0.000E+00  0.000E+00
  -6.680  0.000E+00  0.000E+00
  -6.665  0.000E+00  0.000E+00
  -6.650  0.000E+00  0.000E+00
  -6.635  0.000E+00  0.000E+00
  -6.620  0.000E+00  0.000E+00
  -6.605  0.000E+00  0.000E+00
  -6.590  0.000E+00  0.000E+00
  -6.575  0.000E+00  0.000E+00
  -6.560  0.000E+00  0.000E+00
  -6.545  0.000E+00  0.000E+00
  -6.530  0.000E+00  0.000E+00
  -6.515  0.000E+00  0.000E+00
  -6.500  0.000E+00  0.000E+00
  -6.485  0.000E+00  0.000E+00
  -6.470  0.000E+00  0.000E+00
  -6.455  0.000E+00  0.000E+00
  -6.440  0.000E+00  0.000E+00
  -6.425  0.000E+00  0.000E+00
  -6.410  0.000E+00  0.000E+00
  -6.395  0.000E+00  0.000E+00
  -6.380  0.000E+00  0.000E+00
  -6.365  0.000E+00  0.000E+00
  -6.350  0.000E+00  0.000E+00
  -6.335  0.000E+00  0.000E+00
  -6.320  0.000E+00  0.000E+00
  -6.305  0.000E+00  0.000E+00
  -6.290  0.000E+00  0.000E+00
  -6.275  0.000E+00  0.000E+00
  -6.260  0.000E+00  0.000E+00
  -6.245  0.000E+00  0.000E+00
  -6.230  0.000E+00  0.000E+00
  -6.215  0.000E+00  0.000E+00
  -6.200  0.000E+00  0.000E+00
  -6.185  0.000E+00  0.000E+00
  -6.170  0.000E+00  0.000E+00
  -6.155  0.000E+00  0.000E+00
  -6.140  0.000E+00  0.000E+00
  -6.125  0.000E+00  0.000E+00
  -6.110  0.000E+00  0.000E+00
  -6.095  0.000E+00  0.000E+00
  -6.080  0.000E+00  0.000E+00
  -6.065  0.000E+00  0.000E+00
  -6.050  0.000E+00  0.000E+00
  -6.035  0.000E+00  0.000E+00
  -6.020  0.000E+00  0.000E+00
  -6.005  0.000E+00  0.000E+00
  -5.990  0.000E+00  0.000E+00
  -5.975  0.000E+00  0.000E+00
  -5.960  0.000E+00  0.000E+00
  -5.945  0.000E+00  0.000E+00
  -5.930  0.000E+00  0.000E+00
  -5.915  0.000E+00  0.000E+00
  -5.900  0.000E+00  0.000E+00
  -5.885  0.000E+00  0.000E+00
  -5.870  0.000E+00  0.000E+00
  -5.855  0.000E+00  0.000E+00
  -5.840  0.000E+00  0.000E+00
  -5.825  0.000E+00  0.000E+00
  -5.810  0.000E+00  0.000E+00
  -5.795  0.000E+00  0.000E+00
  -5.780  0.000E+00  0.000E+00
  -5.765  0.000E+00  0.000E+00
  -5.750  0.000E+00  0.000E+00
  -5.735  0.000E+00  0.000E+00
  -5.720  0.000E+00  0.000E+00
  -5.705  0.000E+00  0.000E+00
  -5.690  0.000E+00  0.000E+00
  -5.675  0.000E+00  0.000E+00
  -5.660  0.000E+00  0.000E+00
  -5.645  0.000E+00  0.000E+00
  -5.630  0.000E+00  0.000E+00
  -5.615  0.000E+00  0.000E+00
  -5.600  0.000E+00  0.000E+00
  -5.585  0.000E+00  0.000E+00
  -5.570  0.000E+00  0.000E+00
  -5.555  0.000E+00  0.000E+00
  -5.540  0.000E+00  0.000E+00
  -5.525  0.000E+00  0.000E+00
  -5.510  0.000E+00  0.000E+00
  -5.495  0.000E+00  0.000E+00
  -5.480  0.000E+00  0.000E+00
  -5.465  0.000E+00  0.000E+00
  -5.450  0.000E+00  0.000E+00
  -5.435  0.000E+00  0.000E+00
  -5.420  0.000E+00  0.000E+00
  -5.405  0.000E+00  0.000E+00
  -5.390  0.000E+00  0.000E+00
  -5.375  0.000E+00  0.000E+00
  -5.360  0.000E+00  0.000E+00
  -5.345  0.000E+00  0.000E+00
  -5.330  0.000E+00  0.000E+00
  -5.315  0.000E+00  0.000E+00
  -5.300  0.000E+00  0.000E+00
  -5.285  0.000E+00  0.000E+00
  -5.270  0.000E+00  0.000E+00
  -5.255  0.000E+00  0.000E+00
  -5.240  0.000E+00  0.000E+00
  -5.225  0.000E+00  0.000E+00
  -5.210  0.000E+00  0.000E+00
  -5.195  0.000E+00  0.000E+00
  -5.180  0.000E+00  0.000E+00
  -5.165  0.000E+00  0.000E+00
  -5.150  0.000E+00  0.000E+00
  -5.135  0.000E+00  0.000E+00
  -5.120  0.000E+00  0.000E+00
  -5.105  0.000E+00  0.000E+00
  -5.090  0.000E+00  0.000E+00
  -5.075  0.000E+00  0.000E+00
  -5.060  0.000E+00  0.000E+00
  -5.045  0.000E+00  0.000E+00
  -5.030  0.000E+00  0.000E+00
  -5.015  0.000E+00  0.000E+00
  -5.000  0.000E+00  0.000E+00
  -4.985  0.000E+00  0.000E+00
  -4.970  0.000E+00  0.000E+00
  -4.955  0.000E+00  0.000E+00
  -4.940  0.000E+00  0.000E+00
  -4.925  0.000E+00  0.000E+00
  -4.910  0.000E+00  0.000E+00
  -4.895  0.000E+00  0.000E+00
  -4.880  0.000E+00  0.000E+00
  -4.865  0.000E+00  0.000E+00
  -4.850  0.000E+00  0.000E+00
  -4.835  0.000E+00  0.000E+00
  -4.820  0.000E+00  0.000E+00
  -4.805  0.000E+00  0.000E+00
  -4.790  0.000E+00  0.000E+00
  -4.775  0.000E+00  0.000E+00
  -4.760  0.000E+00  0.000E+00
  -4.745  0.000E+00  0.000E+00
  -4.730  0.000E+00  0.000E+00
  -4.715  0.000E+00  0.000E+00
  -4.700  0.000E+00  0.000E+00
  -4.685  0.000E+00  0.000E+00
  -4.670  0.000E+00  0.000E+00
  -4.655  0.000E+00  0.000E+00
  -4.640  0.000E+00  0.000E+00
  -4.625  0.000E+00  0.000E+00
  -4.610  0.000E+00  0.000E+00
  -4.595  0.000E+00  0.000E+00
  -4.580  0.000E+00  0.000E+00
  -4.565  0.000E+00  0.000E+00
  -4.550  0.000E+00  0.000E+00
  -4.535  0.000E+00  0.000E+00
  -4.520  0.000E+00  0.000E+00
  -4.505  0.000E+00  0.000E+00
  -4.490  0.000E+00  0.000E+00
  -4.475  0.000E+00  0.000E+00
  -4.460  0.000E+00  0.000E+00
  -4.445  0.000E+00  0.000E+00
  -4.430  0.000E+00  0.000E+00
  -4.415  0.000E+00  0.000E+00
  -4.400  0.000E+00  0.000E+00
  -4.385  0.000E+00  0.000E+00
  -4.370  0.000E+00  0.000E+00
  -4.355  0.000E+00  0.000E+00
  -4.340  0.000E+00  0.000E+00
  -4.325  0.000E+00  0.000E+00
  -4.310  0.000E+00  0.000E+00
  -4.295  0.000E+00  0.000E+00
  -4.280  0.000E+00  0.000E+00
  -4.265  0.000E+00  0.000E+00
  -4.250  0.000E+00  0.000E+00
  -4.235  0.000E+00  0.000E+00
  -4.220  0.000E+00  0.000E+00
  -4.205  0.000E+00  0.000E+00
  -4.190  0.000E+00  0.000E+00
  -4.175  0.000E+00  0.000E+00
  -4.160  0.000E+00  0.000E+00
  -4.145  0.000E+00  0.000E+00
  -4.130  0.000E+00  0.000E+00
  -4.115  0.000E+00  0.000E+00
  -4.100  0.000E+00  0.000E+00
  -4.085  0.000E+00  0.000E+00
  -4.070  0.000E+00  0.000E+00
  -4.055  0.000E+00  0.000E+00
  -4.040  0.000E+00  0.000E+00
  -4.025  0.000E+00  0.000E+00
  -4.010  0.000E+00  0.000E+00
  -3.995  0.000E+00  0.000E+00
  -3.980  0.000E+00  0.000E+00
  -3.965  0.000E+00  0.000E+00
  -3.950  0.000E+00  0.000E+00
  -3.935  0.000E+00  0.000E+00
  -3.920  0.000E+00  0.000E+00
  -3.905  0.000E+00  0.000E+00
  -3.890  0.000E+00  0.000E+00
  -3.875  0.000E+00  0.000E+00
  -3.860  0.000E+00  0.000E+00
  -3.845  0.000E+00  0.000E+00
  -3.830  0.000E+00  0.000E+00
  -3.815  0.000E+00  0.000E+00
  -3.800  0.000E+00  0.000E+00
  -3.785  0.000E+00  0.000E+00
  -3.770  0.000E+00  0.000E+00
  -3.755  0.000E+00  0.000E+00
  -3.740  0.000E+00  0.000E+00
  -3.725  0.000E+00  0.000E+00
  -3.710  0.000E+00  0.000E+00
  -3.695  0.000E+00  0.000E+00
  -3.680  0.000E+00  0.000E+00
  -3.665  0.000E+00  0.000E+00
  -3.650  0.000E+00  0.000E+00
  -3.635  0.000E+00  0.000E+00
  -3.620  0.000E+00  0.000E+00
  -3.605  0.000E+00  0.000E+00
  -3.590  0.000E+00  0.000E+00
  -3.575  0.000E+00  0.000E+00
  -3.560  0.000E+00  0.000E+00
  -3.545  0.000E+00  0.000E+00
  -3.530  0.000E+00  0.000E+00
  -3.515  0.000E+00  0.000E+00
  -3.500  0.000E+00  0.000E+00
  -3.485  0.000E+00  0.000E+00
  -3.470  0.000E+00  0.000E+00
  -3.455  0.000E+00  0.000E+00
  -3.440  0.000E+00  0.000E+00
  -3.425  0.000E+00  0.000E+00
  -3.410  0.000E+00  0.000E+00
  -3.395  0.000E+00  0.000E+00
  -3.380  0.000E+00  0.000E+00
  -3.365  0.000E+00  0.000E+00
  -3.350  0.000E+00  0.000E+00
  -3.335  0.000E+00  0.000E+00
  -3.320  0.000E+00  0.000E+00
  -3.305  0.000E+00  0.000E+00
  -3.290  0.000E+00  0.000E+00
  -3.275  0.000E+00  0.000E+00
  -3.260  0.000E+00  0.000E+00
  -3.245  0.000E+00  0.000E+00
  -3.230  0.000E+00  0.000E+00
  -3.215  0.000E+00  0.000E+00
  -3.200  0.604E-15  0.604E-15
  -3.185  0.338E-14  0.338E-14
  -3.170  0.108E-13  0.108E-13
  -3.155  0.331E-13  0.331E-13
  -3.140  0.951E-13  0.951E-13
  -3.125  0.267E-12  0.267E-12
  -3.110  0.730E-12  0.730E-12
  -3.095  0.195E-11  0.195E-11
  -3.080  0.508E-11  0.508E-11
  -3.065  0.129E-10  0.129E-10
  -3.050  0.321E-10  0.321E-10
  -3.035  0.778E-10  0.778E-10
  -3.020  0.184E-09  0.184E-09
  -3.005  0.426E-09  0.426E-09
  -2.990  0.961E-09  0.961E-09
  -2.975  0.212E-08  0.212E-08
  -2.960  0.456E-08  0.456E-08
  -2.945  0.957E-08  0.957E-08
  -2.930  0.196E-07  0.196E-07
  -2.915  0.393E-07  0.393E-07
  -2.900  0.769E-07  0.769E-07
  -2.885  0.147E-06  0.147E-06
  -2.870  0.274E-06  0.274E-06
  -2.855  0.499E-06  0.499E-06
  -2.840  0.887E-06  0.887E-06
  -2.825  0.154E-05  0.154E-05
  -2.810  0.261E-05  0.261E-05
  -2.795  0.433E-05  0.433E-05
  -2.780  0.701E-05  0.701E-05
  -2.765  0.111E-04  0.111E-04
  -2.750  0.171E-04  0.171E-04
  -2.735  0.259E-04  0.259E-04
  -2.720  0.382E-04  0.382E-04
  -2.705  0.552E-04  0.552E-04
  -2.690  0.778E-04  0.778E-04
  -2.675  0.107E-03  0.107E-03
  -2.660  0.145E-03  0.145E-03
  -2.645  0.191E-03  0.191E-03
  -2.630  0.247E-03  0.247E-03
  -2.615  0.313E-03  0.313E-03
  -2.600  0.387E-03  0.387E-03
  -2.585  0.471E-03  0.471E-03
  -2.570  0.561E-03  0.561E-03
  -2.555  0.656E-03  0.656E-03
  -2.540  0.753E-03  0.753E-03
  -2.525  0.850E-03  0.850E-03
  -2.510  0.945E-03  0.945E-03
  -2.495  0.103E-02  0.103E-02
  -2.480  0.112E-02  0.112E-02
  -2.465  0.119E-02  0.119E-02
  -2.450  0.126E-02  0.126E-02
  -2.435  0.131E-02  0.131E-02
  -2.420  0.136E-02  0.136E-02
  -2.405  0.139E-02  0.139E-02
  -2.390  0.142E-02  0.142E-02
  -2.375  0.143E-02  0.143E-02
  -2.360  0.144E-02  0.144E-02
  -2.345  0.145E-02  0.145E-02
  -2.330  0.144E-02  0.144E-02
  -2.315  0.143E-02  0.143E-02
  -2.300  0.142E-02  0.142E-02
  -2.285  0.141E-02  0.141E-02
  -2.270  0.140E-02  0.140E-02
  -2.255  0.139E-02  0.139E-02
  -2.240  0.138E-02  0.138E-02
  -2.225  0.139E-02  0.139E-02
  -2.210  0.139E-02  0.139E-02
  -2.195  0.141E-02  0.141E-02
  -2.180  0.143E-02  0.143E-02
  -2.165  0.146E-02  0.146E-02
  -2.150  0.149E-02  0.149E-02
  -2.135  0.152E-02  0.152E-02
  -2.120  0.156E-02  0.156E-02
  -2.105  0.159E-02  0.159E-02
  -2.090  0.162E-02  0.162E-02
  -2.075  0.164E-02  0.164E-02
  -2.060  0.166E-02  0.166E-02
  -2.045  0.167E-02  0.167E-02
  -2.030  0.168E-02  0.168E-02
  -2.015  0.169E-02  0.169E-02
  -2.000  0.170E-02  0.170E-02
  -1.985  0.170E-02  0.170E-02
  -1.970  0.171E-02  0.171E-02
  -1.955  0.172E-02  0.172E-02
  -1.940  0.174E-02  0.174E-02
  -1.925  0.175E-02  0.175E-02
  -1.910  0.177E-02  0.177E-02
  -1.895  0.179E-02  0.179E-02
  -1.880  0.180E-02  0.180E-02
  -1.865  0.181E-02  0.181E-02
  -1.850  0.181E-02  0.181E-02
  -1.835  0.181E-02  0.181E-02
  -1.820  0.180E-02  0.180E-02
  -1.805  0.178E-02  0.178E-02
  -1.790  0.175E-02  0.175E-02
  -1.775  0.171E-02  0.171E-02
  -1.760  0.167E-02  0.167E-02
  -1.745  0.162E-02  0.162E-02
  -1.730  0.157E-02  0.157E-02
  -1.715  0.151E-02  0.151E-02
  -1.700  0.146E-02  0.146E-02
  -1.685  0.140E-02  0.140E-02
  -1.670  0.135E-02  0.135E-02
  -1.655  0.131E-02  0.131E-02
  -1.640  0.127E-02  0.127E-02
  -1.625  0.124E-02  0.124E-02
  -1.610  0.121E-02  0.121E-02
  -1.595  0.120E-02  0.120E-02
  -1.580  0.120E-02  0.120E-02
  -1.565  0.122E-02  0.122E-02
  -1.550  0.124E-02  0.124E-02
  -1.535  0.129E-02  0.129E-02
  -1.520  0.135E-02  0.135E-02
  -1.505  0.144E-02  0.144E-02
  -1.490  0.154E-02  0.154E-02
  -1.475  0.167E-02  0.167E-02
  -1.460  0.181E-02  0.181E-02
  -1.445  0.198E-02  0.198E-02
  -1.430  0.216E-02  0.216E-02
  -1.415  0.235E-02  0.235E-02
  -1.400  0.255E-02  0.255E-02
  -1.385  0.274E-02  0.274E-02
  -1.370  0.293E-02  0.293E-02
  -1.355  0.310E-02  0.310E-02
  -1.340  0.324E-02  0.324E-02
  -1.325  0.335E-02  0.335E-02
  -1.310  0.343E-02  0.343E-02
  -1.295  0.346E-02  0.346E-02
  -1.280  0.344E-02  0.344E-02
  -1.265  0.339E-02  0.339E-02
  -1.250  0.329E-02  0.329E-02
  -1.235  0.317E-02  0.317E-02
  -1.220  0.301E-02  0.301E-02
  -1.205  0.284E-02  0.284E-02
  -1.190  0.265E-02  0.265E-02
  -1.175  0.246E-02  0.246E-02
  -1.160  0.226E-02  0.226E-02
  -1.145  0.207E-02  0.207E-02
  -1.130  0.189E-02  0.189E-02
  -1.115  0.173E-02  0.173E-02
  -1.100  0.157E-02  0.157E-02
  -1.085  0.143E-02  0.143E-02
  -1.070  0.130E-02  0.130E-02
  -1.055  0.118E-02  0.118E-02
  -1.040  0.108E-02  0.108E-02
  -1.025  0.989E-03  0.989E-03
  -1.010  0.910E-03  0.910E-03
  -0.995  0.840E-03  0.840E-03
  -0.980  0.781E-03  0.781E-03
  -0.965  0.729E-03  0.729E-03
  -0.950  0.685E-03  0.685E-03
  -0.935  0.649E-03  0.649E-03
  -0.920  0.618E-03  0.618E-03
  -0.905  0.593E-03  0.593E-03
  -0.890  0.574E-03  0.574E-03
  -0.875  0.560E-03  0.560E-03
  -0.860  0.551E-03  0.551E-03
  -0.845  0.547E-03  0.547E-03
  -0.830  0.549E-03  0.549E-03
  -0.815  0.557E-03  0.557E-03
  -0.800  0.572E-03  0.572E-03
  -0.785  0.596E-03  0.596E-03
  -0.770  0.630E-03  0.630E-03
  -0.755  0.675E-03  0.675E-03
  -0.740  0.732E-03  0.732E-03
  -0.725  0.804E-03  0.804E-03
  -0.710  0.892E-03  0.892E-03
  -0.695  0.997E-03  0.997E-03
  -0.680  0.112E-02  0.112E-02
  -0.665  0.127E-02  0.127E-02
  -0.650  0.143E-02  0.143E-02
  -0.635  0.161E-02  0.161E-02
  -0.620  0.181E-02  0.181E-02
  -0.605  0.203E-02  0.203E-02
  -0.590  0.225E-02  0.225E-02
  -0.575  0.248E-02  0.248E-02
  -0.560  0.270E-02  0.270E-02
  -0.545  0.293E-02  0.293E-02
  -0.530  0.313E-02  0.313E-02
  -0.515  0.333E-02  0.333E-02
  -0.500  0.350E-02  0.350E-02
  -0.485  0.365E-02  0.365E-02
  -0.470  0.378E-02  0.378E-02
  -0.455  0.388E-02  0.388E-02
  -0.440  0.397E-02  0.397E-02
  -0.425  0.404E-02  0.404E-02
  -0.410  0.408E-02  0.408E-02
  -0.395  0.412E-02  0.412E-02
  -0.380  0.413E-02  0.413E-02
  -0.365  0.413E-02  0.413E-02
  -0.350  0.411E-02  0.411E-02
  -0.335  0.407E-02  0.407E-02
  -0.320  0.401E-02  0.401E-02
  -0.305  0.394E-02  0.394E-02
  -0.290  0.386E-02  0.386E-02
  -0.275  0.376E-02  0.376E-02
  -0.260  0.366E-02  0.366E-02
  -0.245  0.357E-02  0.357E-02
  -0.230  0.348E-02  0.348E-02
  -0.215  0.340E-02  0.340E-02
  -0.200  0.334E-02  0.334E-02
  -0.185  0.332E-02  0.332E-02
  -0.170  0.332E-02  0.332E-02
  -0.155  0.337E-02  0.337E-02
  -0.140  0.346E-02  0.346E-02
  -0.125  0.360E-02  0.360E-02
  -0.110  0.379E-02  0.379E-02
  -0.095  0.401E-02  0.401E-02
  -0.080  0.426E-02  0.426E-02
  -0.065  0.454E-02  0.454E-02
  -0.050  0.482E-02  0.482E-02
  -0.035  0.510E-02  0.510E-02
  -0.020  0.535E-02  0.535E-02
  -0.005  0.556E-02  0.556E-02
   0.010  0.573E-02  0.573E-02
   0.025  0.583E-02  0.583E-02
   0.040  0.586E-02  0.586E-02
   0.055  0.583E-02  0.583E-02
   0.070  0.574E-02  0.574E-02
   0.085  0.560E-02  0.560E-02
   0.100  0.541E-02  0.541E-02
   0.115  0.519E-02  0.519E-02
   0.130  0.494E-02  0.494E-02
   0.145  0.469E-02  0.469E-02
   0.160  0.444E-02  0.444E-02
   0.175  0.419E-02  0.419E-02
   0.190  0.396E-02  0.396E-02
   0.205  0.374E-02  0.374E-02
   0.220  0.354E-02  0.354E-02
   0.235  0.336E-02  0.336E-02
   0.250  0.319E-02  0.319E-02
   0.265  0.303E-02  0.303E-02
   0.280  0.288E-02  0.288E-02
   0.295  0.274E-02  0.274E-02
   0.310  0.260E-02  0.260E-02
   0.325  0.245E-02  0.245E-02
   0.340  0.231E-02  0.231E-02
   0.355  0.215E-02  0.215E-02
   0.370  0.199E-02  0.199E-02
   0.385  0.182E-02  0.182E-02
   0.400  0.165E-02  0.165E-02
   0.415  0.148E-02  0.148E-02
   0.430  0.131E-02  0.131E-02
   0.445  0.115E-02  0.115E-02
   0.460  0.994E-03  0.994E-03
   0.475  0.852E-03  0.852E-03
   0.490  0.725E-03  0.725E-03
   0.505  0.613E-03  0.613E-03
   0.520  0.519E-03  0.519E-03
   0.535  0.440E-03  0.440E-03
   0.550  0.377E-03  0.377E-03
   0.565  0.326E-03  0.326E-03
   0.580  0.286E-03  0.286E-03
   0.595  0.256E-03  0.256E-03
   0.610  0.232E-03  0.232E-03
   0.625  0.214E-03  0.214E-03
   0.640  0.199E-03  0.199E-03
   0.655  0.188E-03  0.188E-03
   0.670  0.179E-03  0.179E-03
   0.685  0.172E-03  0.172E-03
   0.700  0.166E-03  0.166E-03
   0.715  0.162E-03  0.162E-03
   0.730  0.159E-03  0.159E-03
   0.745  0.156E-03  0.156E-03
   0.760  0.154E-03  0.154E-03
   0.775  0.153E-03  0.153E-03
   0.790  0.151E-03  0.151E-03
   0.805  0.149E-03  0.149E-03
   0.820  0.147E-03  0.147E-03
   0.835  0.144E-03  0.144E-03
   0.850  0.141E-03  0.141E-03
   0.865  0.138E-03  0.138E-03
   0.880  0.134E-03  0.134E-03
   0.895  0.131E-03  0.131E-03
   0.910  0.128E-03  0.128E-03
   0.925  0.126E-03  0.126E-03
   0.940  0.124E-03  0.124E-03
   0.955  0.122E-03  0.122E-03
   0.970  0.120E-03  0.120E-03
   0.985  0.118E-03  0.118E-03
   1.000  0.116E-03  0.116E-03
   1.015  0.114E-03  0.114E-03
   1.030  0.111E-03  0.111E-03
   1.045  0.109E-03  0.109E-03
   1.060  0.106E-03  0.106E-03
   1.075  0.104E-03  0.104E-03
   1.090  0.101E-03  0.101E-03
   1.105  0.993E-04  0.993E-04
   1.120  0.974E-04  0.974E-04
   1.135  0.956E-04  0.956E-04
   1.150  0.942E-04  0.942E-04
   1.165  0.929E-04  0.929E-04
   1.180  0.918E-04  0.918E-04
   1.195  0.910E-04  0.910E-04
   1.210  0.903E-04  0.903E-04
   1.225  0.899E-04  0.899E-04
   1.240  0.896E-04  0.896E-04
   1.255  0.896E-04  0.896E-04
   1.270  0.897E-04  0.897E-04
   1.285  0.899E-04  0.899E-04
   1.300  0.901E-04  0.901E-04
   1.315  0.903E-04  0.903E-04
   1.330  0.902E-04  0.902E-04
   1.345  0.897E-04  0.897E-04
   1.360  0.888E-04  0.888E-04
   1.375  0.873E-04  0.873E-04
   1.390  0.851E-04  0.851E-04
   1.405  0.821E-04  0.821E-04
   1.420  0.784E-04  0.784E-04
   1.435  0.739E-04  0.739E-04
   1.450  0.687E-04  0.687E-04
   1.465  0.630E-04  0.630E-04
   1.480  0.569E-04  0.569E-04
   1.495  0.506E-04  0.506E-04
   1.510  0.442E-04  0.442E-04
   1.525  0.380E-04  0.380E-04
   1.540  0.321E-04  0.321E-04
   1.555  0.266E-04  0.266E-04
   1.570  0.216E-04  0.216E-04
   1.585  0.173E-04  0.173E-04
   1.600  0.135E-04  0.135E-04
   1.615  0.104E-04  0.104E-04
   1.630  0.780E-05  0.780E-05
   1.645  0.575E-05  0.575E-05
   1.660  0.415E-05  0.415E-05
   1.675  0.294E-05  0.294E-05
   1.690  0.204E-05  0.204E-05
   1.705  0.138E-05  0.138E-05
   1.720  0.919E-06  0.919E-06
   1.735  0.598E-06  0.598E-06
   1.750  0.381E-06  0.381E-06
   1.765  0.238E-06  0.238E-06
   1.780  0.145E-06  0.145E-06
   1.795  0.868E-07  0.868E-07
   1.810  0.508E-07  0.508E-07
   1.825  0.291E-07  0.291E-07
   1.840  0.163E-07  0.163E-07
   1.855  0.892E-08  0.892E-08
   1.870  0.478E-08  0.478E-08
   1.885  0.251E-08  0.251E-08
   1.900  0.129E-08  0.129E-08
   1.915  0.645E-09  0.645E-09
   1.930  0.316E-09  0.316E-09
   1.945  0.152E-09  0.152E-09
   1.960  0.711E-10  0.711E-10
   1.975  0.326E-10  0.326E-10
   1.990  0.146E-10  0.146E-10
   2.005  0.641E-11  0.641E-11
   2.020  0.275E-11  0.275E-11
   2.035  0.115E-11  0.115E-11
   2.050  0.473E-12  0.473E-12
   2.065  0.199E-12  0.199E-12
   2.080  0.107E-12  0.107E-12
   2.095  0.130E-12  0.130E-12
   2.110  0.305E-12  0.305E-12
   2.125  0.822E-12  0.822E-12
   2.140  0.222E-11  0.222E-11
   2.155  0.587E-11  0.587E-11
   2.170  0.152E-10  0.152E-10
   2.185  0.382E-10  0.382E-10
   2.200  0.942E-10  0.942E-10
   2.215  0.227E-09  0.227E-09
   2.230  0.532E-09  0.532E-09
   2.245  0.122E-08  0.122E-08
   2.260  0.273E-08  0.273E-08
   2.275  0.598E-08  0.598E-08
   2.290  0.128E-07  0.128E-07
   2.305  0.267E-07  0.267E-07
   2.320  0.543E-07  0.543E-07
   2.335  0.108E-06  0.108E-06
   2.350  0.210E-06  0.210E-06
   2.365  0.400E-06  0.400E-06
   2.380  0.742E-06  0.742E-06
   2.395  0.135E-05  0.135E-05
   2.410  0.239E-05  0.239E-05
   2.425  0.413E-05  0.413E-05
   2.440  0.699E-05  0.699E-05
   2.455  0.116E-04  0.116E-04
   2.470  0.187E-04  0.187E-04
   2.485  0.296E-04  0.296E-04
   2.500  0.457E-04  0.457E-04
   2.515  0.690E-04  0.690E-04
   2.530  0.102E-03  0.102E-03
   2.545  0.147E-03  0.147E-03
   2.560  0.208E-03  0.208E-03
   2.575  0.288E-03  0.288E-03
   2.590  0.391E-03  0.391E-03
   2.605  0.518E-03  0.518E-03
   2.620  0.672E-03  0.672E-03
   2.635  0.855E-03  0.855E-03
   2.650  0.107E-02  0.107E-02
   2.665  0.131E-02  0.131E-02
   2.680  0.157E-02  0.157E-02
   2.695  0.185E-02  0.185E-02
   2.710  0.215E-02  0.215E-02
   2.725  0.245E-02  0.245E-02
   2.740  0.276E-02  0.276E-02
   2.755  0.307E-02  0.307E-02
   2.770  0.339E-02  0.339E-02
   2.785  0.370E-02  0.370E-02
   2.800  0.402E-02  0.402E-02
   2.815  0.435E-02  0.435E-02
   2.830  0.470E-02  0.470E-02
   2.845  0.508E-02  0.508E-02
   2.860  0.548E-02  0.548E-02
   2.875  0.592E-02  0.592E-02
   2.890  0.639E-02  0.639E-02
   2.905  0.690E-02  0.690E-02
   2.920  0.743E-02  0.743E-02
   2.935  0.796E-02  0.796E-02
   2.950  0.850E-02  0.850E-02
   2.965  0.901E-02  0.901E-02
   2.980  0.947E-02  0.947E-02
   2.995  0.989E-02  0.989E-02
   3.010  0.102E-01  0.102E-01
   3.025  0.105E-01  0.105E-01
   3.040  0.107E-01  0.107E-01
   3.055  0.107E-01  0.107E-01
   3.070  0.107E-01  0.107E-01
   3.085  0.106E-01  0.106E-01
   3.100  0.105E-01  0.105E-01
   3.115  0.102E-01  0.102E-01
   3.130  0.993E-02  0.993E-02
   3.145  0.956E-02  0.956E-02
   3.160  0.915E-02  0.915E-02
   3.175  0.869E-02  0.869E-02
   3.190  0.819E-02  0.819E-02
   3.205  0.767E-02  0.767E-02
   3.220  0.713E-02  0.713E-02
   3.235  0.658E-02  0.658E-02
   3.250  0.603E-02  0.603E-02
   3.265  0.550E-02  0.550E-02
   3.280  0.498E-02  0.498E-02
   3.295  0.449E-02  0.449E-02
   3.310  0.404E-02  0.404E-02
   3.325  0.363E-02  0.363E-02
   3.340  0.327E-02  0.327E-02
   3.355  0.295E-02  0.295E-02
   3.370  0.268E-02  0.268E-02
   3.385  0.246E-02  0.246E-02
   3.400  0.228E-02  0.228E-02
   3.415  0.214E-02  0.214E-02
   3.430  0.203E-02  0.203E-02
   3.445  0.195E-02  0.195E-02
   3.460  0.190E-02  0.190E-02
   3.475  0.187E-02  0.187E-02
   3.490  0.187E-02  0.187E-02
   3.505  0.188E-02  0.188E-02
   3.520  0.191E-02  0.191E-02
   3.535  0.195E-02  0.195E-02
   3.550  0.201E-02  0.201E-02
   3.565  0.209E-02  0.209E-02
   3.580  0.218E-02  0.218E-02
   3.595  0.228E-02  0.228E-02
   3.610  0.238E-02  0.238E-02
   3.625  0.249E-02  0.249E-02
   3.640  0.260E-02  0.260E-02
   3.655  0.270E-02  0.270E-02
   3.670  0.278E-02  0.278E-02
   3.685  0.285E-02  0.285E-02
   3.700  0.289E-02  0.289E-02
   3.715  0.290E-02  0.290E-02
   3.730  0.288E-02  0.288E-02
   3.745  0.283E-02  0.283E-02
   3.760  0.275E-02  0.275E-02
   3.775  0.265E-02  0.265E-02
   3.790  0.252E-02  0.252E-02
   3.805  0.239E-02  0.239E-02
   3.820  0.224E-02  0.224E-02
   3.835  0.209E-02  0.209E-02
   3.850  0.194E-02  0.194E-02
   3.865  0.179E-02  0.179E-02
   3.880  0.166E-02  0.166E-02
   3.895  0.153E-02  0.153E-02
   3.910  0.141E-02  0.141E-02
   3.925  0.130E-02  0.130E-02
   3.940  0.119E-02  0.119E-02
   3.955  0.110E-02  0.110E-02
   3.970  0.101E-02  0.101E-02
   3.985  0.935E-03  0.935E-03
   4.000  0.862E-03  0.862E-03
   4.015  0.797E-03  0.797E-03
   4.030  0.737E-03  0.737E-03
   4.045  0.685E-03  0.685E-03
   4.060  0.640E-03  0.640E-03
   4.075  0.602E-03  0.602E-03
   4.090  0.572E-03  0.572E-03
   4.105  0.550E-03  0.550E-03
   4.120  0.536E-03  0.536E-03
   4.135  0.530E-03  0.530E-03
   4.150  0.531E-03  0.531E-03
   4.165  0.540E-03  0.540E-03
   4.180  0.556E-03  0.556E-03
   4.195  0.578E-03  0.578E-03
   4.210  0.605E-03  0.605E-03
   4.225  0.636E-03  0.636E-03
   4.240  0.669E-03  0.669E-03
   4.255  0.702E-03  0.702E-03
   4.270  0.734E-03  0.734E-03
   4.285  0.763E-03  0.763E-03
   4.300  0.787E-03  0.787E-03
   4.315  0.804E-03  0.804E-03
   4.330  0.813E-03  0.813E-03
   4.345  0.813E-03  0.813E-03
   4.360  0.804E-03  0.804E-03
   4.375  0.786E-03  0.786E-03
   4.390  0.760E-03  0.760E-03
   4.405  0.727E-03  0.727E-03
   4.420  0.687E-03  0.687E-03
   4.435  0.644E-03  0.644E-03
   4.450  0.597E-03  0.597E-03
   4.465  0.550E-03  0.550E-03
   4.480  0.503E-03  0.503E-03
   4.495  0.457E-03  0.457E-03
   4.510  0.414E-03  0.414E-03
   4.525  0.374E-03  0.374E-03
   4.540  0.338E-03  0.338E-03
   4.555  0.304E-03  0.304E-03
   4.570  0.275E-03  0.275E-03
   4.585  0.248E-03  0.248E-03
   4.600  0.224E-03  0.224E-03
   4.615  0.202E-03  0.202E-03
   4.630  0.182E-03  0.182E-03
   4.645  0.163E-03  0.163E-03
   4.660  0.146E-03  0.146E-03
   4.675  0.130E-03  0.130E-03
   4.690  0.115E-03  0.115E-03
   4.705  0.101E-03  0.101E-03
   4.720  0.885E-04  0.885E-04
   4.735  0.769E-04  0.769E-04
   4.750  0.665E-04  0.665E-04
   4.765  0.575E-04  0.575E-04
   4.780  0.499E-04  0.499E-04
   4.795  0.437E-04  0.437E-04
   4.810  0.389E-04  0.389E-04
   4.825  0.354E-04  0.354E-04
   4.840  0.332E-04  0.332E-04
   4.855  0.321E-04  0.321E-04
   4.870  0.320E-04  0.320E-04
   4.885  0.328E-04  0.328E-04
   4.900  0.343E-04  0.343E-04
   4.915  0.362E-04  0.362E-04
   4.930  0.386E-04  0.386E-04
   4.945  0.410E-04  0.410E-04
   4.960  0.436E-04  0.436E-04
   4.975  0.461E-04  0.461E-04
   4.990  0.484E-04  0.484E-04
   5.005  0.505E-04  0.505E-04
   5.020  0.525E-04  0.525E-04
   5.035  0.542E-04  0.542E-04
   5.050  0.558E-04  0.558E-04
   5.065  0.573E-04  0.573E-04
   5.080  0.586E-04  0.586E-04
   5.095  0.600E-04  0.600E-04
   5.110  0.613E-04  0.613E-04
   5.125  0.626E-04  0.626E-04
   5.140  0.639E-04  0.639E-04
   5.155  0.651E-04  0.651E-04
   5.170  0.663E-04  0.663E-04
   5.185  0.674E-04  0.674E-04
   5.200  0.683E-04  0.683E-04
   5.215  0.690E-04  0.690E-04
   5.230  0.694E-04  0.694E-04
   5.245  0.695E-04  0.695E-04
   5.260  0.694E-04  0.694E-04
   5.275  0.688E-04  0.688E-04
   5.290  0.679E-04  0.679E-04
   5.305  0.666E-04  0.666E-04
   5.320  0.649E-04  0.649E-04
   5.335  0.627E-04  0.627E-04
   5.350  0.602E-04  0.602E-04
   5.365  0.573E-04  0.573E-04
   5.380  0.540E-04  0.540E-04
   5.395  0.505E-04  0.505E-04
   5.410  0.468E-04  0.468E-04
   5.425  0.429E-04  0.429E-04
   5.440  0.390E-04  0.390E-04
   5.455  0.352E-04  0.352E-04
   5.470  0.315E-04  0.315E-04
   5.485  0.281E-04  0.281E-04
   5.500  0.249E-04  0.249E-04
   5.515  0.220E-04  0.220E-04
   5.530  0.195E-04  0.195E-04
   5.545  0.173E-04  0.173E-04
   5.560  0.154E-04  0.154E-04
   5.575  0.139E-04  0.139E-04
   5.590  0.126E-04  0.126E-04
   5.605  0.115E-04  0.115E-04
   5.620  0.107E-04  0.107E-04
   5.635  0.995E-05  0.995E-05
   5.650  0.935E-05  0.935E-05
   5.665  0.882E-05  0.882E-05
   5.680  0.835E-05  0.835E-05
   5.695  0.792E-05  0.792E-05
   5.710  0.750E-05  0.750E-05
   5.725  0.709E-05  0.709E-05
   5.740  0.668E-05  0.668E-05
   5.755  0.628E-05  0.628E-05
   5.770  0.587E-05  0.587E-05
   5.785  0.545E-05  0.545E-05
   5.800  0.504E-05  0.504E-05
   5.815  0.463E-05  0.463E-05
   5.830  0.422E-05  0.422E-05
   5.845  0.382E-05  0.382E-05
   5.860  0.342E-05  0.342E-05
   5.875  0.304E-05  0.304E-05
   5.890  0.268E-05  0.268E-05
   5.905  0.233E-05  0.233E-05
   5.920  0.201E-05  0.201E-05
   5.935  0.170E-05  0.170E-05
   5.950  0.143E-05  0.143E-05
   5.965  0.118E-05  0.118E-05
   5.980  0.960E-06  0.960E-06
   5.995  0.769E-06  0.769E-06
   6.010  0.605E-06  0.605E-06
   6.025  0.468E-06  0.468E-06
   6.040  0.356E-06  0.356E-06
   6.055  0.265E-06  0.265E-06
   6.070  0.194E-06  0.194E-06
   6.085  0.139E-06  0.139E-06
   6.100  0.981E-07  0.981E-07
   6.115  0.676E-07  0.676E-07
   6.130  0.457E-07  0.457E-07
   6.145  0.302E-07  0.302E-07
   6.160  0.196E-07  0.196E-07
   6.175  0.124E-07  0.124E-07
   6.190  0.770E-08  0.770E-08
   6.205  0.468E-08  0.468E-08
   6.220  0.278E-08  0.278E-08
   6.235  0.161E-08  0.161E-08
   6.250  0.918E-09  0.918E-09
   6.265  0.510E-09  0.510E-09
   6.280  0.277E-09  0.277E-09
   6.295  0.147E-09  0.147E-09
   6.310  0.764E-10  0.764E-10
   6.325  0.388E-10  0.388E-10
   6.340  0.193E-10  0.193E-10
   6.355  0.934E-11  0.934E-11
   6.370  0.442E-11  0.442E-11
   6.385  0.205E-11  0.205E-11
   6.400  0.927E-12  0.927E-12
   6.415  0.410E-12  0.410E-12
   6.430  0.177E-12  0.177E-12
   6.445  0.747E-13  0.747E-13
   6.460  0.308E-13  0.308E-13
   6.475  0.124E-13  0.124E-13
   6.490  0.488E-14  0.488E-14
   6.505  0.188E-14  0.188E-14
   6.520  0.704E-15  0.704E-15
   6.535  0.256E-15  0.256E-15
   6.550  0.917E-16  0.917E-16
   6.565  0.321E-16  0.321E-16
   6.580  0.110E-16  0.110E-16
   6.595  0.285E-17  0.285E-17
   6.610  0.941E-18  0.941E-18
   6.625  0.120E-31  0.120E-31
   6.640  0.000E+00  0.000E+00
   6.655  0.000E+00  0.000E+00
   6.670  0.000E+00  0.000E+00
   6.685  0.000E+00  0.000E+00
   6.700  0.000E+00  0.000E+00
   6.715  0.000E+00  0.000E+00
   6.730  0.000E+00  0.000E+00
   6.745  0.000E+00  0.000E+00
   6.760  0.000E+00  0.000E+00
   6.775  0.000E+00  0.000E+00
   6.790  0.000E+00  0.000E+00
   6.805  0.000E+00  0.000E+00
   6.820  0.000E+00  0.000E+00
   6.835  0.000E+00  0.000E+00
   6.850  0.000E+00  0.000E+00
   6.865  0.000E+00  0.000E+00
   6.880  0.000E+00  0.000E+00
   6.895  0.000E+00  0.000E+00
   6.910  0.000E+00  0.000E+00
   6.925  0.000E+00  0.000E+00
   6.940  0.000E+00  0.000E+00
   6.955  0.000E+00  0.000E+00
   6.970  0.000E+00  0.000E+00
   6.985  0.000E+00  0.000E+00
   7.000  0.000E+00  0.000E+00
   7.015  0.000E+00  0.000E+00
   7.030  0.000E+00  0.000E+00
   7.045  0.000E+00  0.000E+00
   7.060  0.000E+00  0.000E+00
   7.075  0.000E+00  0.000E+00
   7.090  0.000E+00  0.000E+00
   7.105  0.000E+00  0.000E+00
   7.120  0.000E+00  0.000E+00
   7.135  0.000E+00  0.000E+00
   7.150  0.000E+00  0.000E+00
   7.165  0.000E+00  0.000E+00
   7.180  0.000E+00  0.000E+00
   7.195  0.000E+00  0.000E+00
   7.210  0.000E+00  0.000E+00
   7.225  0.000E+00  0.000E+00
   7.240  0.000E+00  0.000E+00
   7.255  0.000E+00  0.000E+00
   7.270  0.000E+00  0.000E+00
   7.285  0.000E+00  0.000E+00
   7.300  0.000E+00  0.000E+00
   7.315  0.000E+00  0.000E+00
   7.330  0.000E+00  0.000E+00
   7.345  0.000E+00  0.000E+00
   7.360  0.000E+00  0.000E+00
   7.375  0.000E+00  0.000E+00
   7.390  0.000E+00  0.000E+00
   7.405  0.000E+00  0.000E+00
   7.420  0.000E+00  0.000E+00
   7.435  0.000E+00  0.000E+00
   7.450  0.000E+00  0.000E+00
   7.465  0.000E+00  0.000E+00
   7.480  0.000E+00  0.000E+00
   7.495  0.000E+00  0.000E+00
   7.510  0.000E+00  0.000E+00
   7.525  0.000E+00  0.000E+00
   7.540  0.000E+00  0.000E+00
   7.555  0.000E+00  0.000E+00
   7.570  0.000E+00  0.000E+00
   7.585  0.000E+00  0.000E+00
   7.600  0.000E+00  0.000E+00
   7.615  0.000E+00  0.000E+00
   7.630  0.000E+00  0.000E+00
   7.645  0.000E+00  0.000E+00
   7.660  0.000E+00  0.000E+00
   7.675  0.000E+00  0.000E+00
   7.690  0.000E+00  0.000E+00
   7.705  0.000E+00  0.000E+00
   7.720  0.000E+00  0.000E+00
   7.735  0.000E+00  0.000E+00
   7.750  0.000E+00  0.000E+00
   7.765  0.000E+00  0.000E+00
   7.780  0.000E+00  0.000E+00
   7.795  0.000E+00  0.000E+00
   7.810  0.000E+00  0.000E+00
   7.825  0.000E+00  0.000E+00
   7.840  0.000E+00  0.000E+00
   7.855  0.000E+00  0.000E+00
   7.870  0.000E+00  0.000E+00
   7.885  0.000E+00  0.000E+00
   7.900  0.000E+00  0.000E+00
   7.915  0.000E+00  0.000E+00
   7.930  0.000E+00  0.000E+00
   7.945  0.000E+00  0.000E+00
   7.960  0.000E+00  0.000E+00
   7.975  0.000E+00  0.000E+00
   7.990  0.000E+00  0.000E+00
   8.005  0.000E+00  0.000E+00
   8.020  0.000E+00  0.000E+00
   8.035  0.000E+00  0.000E+00
   8.050  0.000E+00  0.000E+00
   8.065  0.000E+00  0.000E+00
   8.080  0.000E+00  0.000E+00
   8.095  0.000E+00  0.000E+00
   8.110  0.000E+00  0.000E+00
   8.125  0.000E+00  0.000E+00
   8.140  0.000E+00  0.000E+00
   8.155  0.000E+00  0.000E+00
   8.170  0.000E+00  0.000E+00
   8.185  0.000E+00  0.000E+00
   8.200  0.000E+00  0.000E+00
   8.215  0.000E+00  0.000E+00
   8.230  0.000E+00  0.000E+00
   8.245  0.000E+00  0.000E+00
   8.260  0.000E+00  0.000E+00
   8.275  0.000E+00  0.000E+00
   8.290  0.000E+00  0.000E+00
   8.305  0.000E+00  0.000E+00
   8.320  0.000E+00  0.000E+00
   8.335  0.000E+00  0.000E+00
   8.350  0.000E+00  0.000E+00
   8.365  0.000E+00  0.000E+00
   8.380  0.000E+00  0.000E+00
   8.395  0.000E+00  0.000E+00
   8.410  0.000E+00  0.000E+00
   8.425  0.000E+00  0.000E+00
   8.440  0.000E+00  0.000E+00
   8.455  0.000E+00  0.000E+00
   8.470  0.000E+00  0.000E+00
   8.485  0.000E+00  0.000E+00
   8.500  0.000E+00  0.000E+00
   8.515  0.000E+00  0.000E+00
   8.530  0.000E+00  0.000E+00
   8.545  0.000E+00  0.000E+00
   8.560  0.000E+00  0.000E+00
   8.575  0.000E+00  0.000E+00
   8.590  0.000E+00  0.000E+00
   8.605  0.000E+00  0.000E+00
   8.620  0.000E+00  0.000E+00
   8.635  0.000E+00  0.000E+00
   8.650  0.000E+00  0.000E+00
   8.665  0.000E+00  0.000E+00
   8.680  0.000E+00  0.000E+00
   8.695  0.000E+00  0.000E+00
   8.710  0.000E+00  0.000E+00
   8.725  0.000E+00  0.000E+00
   8.740  0.000E+00  0.000E+00
   8.755  0.000E+00  0.000E+00
   8.770  0.000E+00  0.000E+00
   8.785  0.000E+00  0.000E+00
   8.800  0.000E+00  0.000E+00
   8.815  0.000E+00  0.000E+00
   8.830  0.000E+00  0.000E+00
   8.845  0.000E+00  0.000E+00
   8.860  0.000E+00  0.000E+00
   8.875  0.000E+00  0.000E+00
   8.890  0.000E+00  0.000E+00
   8.905  0.000E+00  0.000E+00
   8.920  0.000E+00  0.000E+00
   8.935  0.000E+00  0.000E+00
   8.950  0.000E+00  0.000E+00
   8.965  0.000E+00  0.000E+00
   8.980  0.000E+00  0.000E+00
   8.995  0.000E+00  0.000E+00
   9.010  0.000E+00  0.000E+00
   9.025  0.000E+00  0.000E+00
   9.040  0.000E+00  0.000E+00
   9.055  0.000E+00  0.000E+00
   9.070  0.000E+00  0.000E+00
   9.085  0.000E+00  0.000E+00
   9.100  0.000E+00  0.000E+00
   9.115  0.000E+00  0.000E+00
   9.130  0.000E+00  0.000E+00
   9.145  0.000E+00  0.000E+00
   9.160  0.000E+00  0.000E+00
   9.175  0.000E+00  0.000E+00
   9.190  0.000E+00  0.000E+00
   9.205  0.000E+00  0.000E+00
   9.220  0.000E+00  0.000E+00
   9.235  0.000E+00  0.000E+00
   9.250  0.000E+00  0.000E+00
   9.265  0.000E+00  0.000E+00
   9.280  0.000E+00  0.000E+00
   9.295  0.000E+00  0.000E+00
   9.310  0.000E+00  0.000E+00
   9.325  0.000E+00  0.000E+00
   9.340  0.000E+00  0.000E+00
   9.355  0.000E+00  0.000E+00
   9.370  0.000E+00  0.000E+00
   9.385  0.104E-16  0.104E-16
   9.400  0.390E-16  0.390E-16
   9.415  0.117E-15  0.117E-15
   9.430  0.353E-15  0.353E-15
   9.445  0.997E-15  0.997E-15
   9.460  0.275E-14  0.275E-14
   9.475  0.741E-14  0.741E-14
   9.490  0.195E-13  0.195E-13
   9.505  0.501E-13  0.501E-13
   9.520  0.126E-12  0.126E-12
   9.535  0.308E-12  0.308E-12
   9.550  0.736E-12  0.736E-12
   9.565  0.172E-11  0.172E-11
   9.580  0.392E-11  0.392E-11
   9.595  0.872E-11  0.872E-11
   9.610  0.190E-10  0.190E-10
   9.625  0.402E-10  0.402E-10
   9.640  0.835E-10  0.835E-10
   9.655  0.169E-09  0.169E-09
   9.670  0.334E-09  0.334E-09
   9.685  0.646E-09  0.646E-09
   9.700  0.122E-08  0.122E-08
   9.715  0.225E-08  0.225E-08
   9.730  0.406E-08  0.406E-08
   9.745  0.715E-08  0.715E-08
   9.760  0.123E-07  0.123E-07
   9.775  0.207E-07  0.207E-07
   9.790  0.340E-07  0.340E-07
   9.805  0.547E-07  0.547E-07
   9.820  0.859E-07  0.859E-07
   9.835  0.132E-06  0.132E-06
   9.850  0.198E-06  0.198E-06
   9.865  0.292E-06  0.292E-06
   9.880  0.420E-06  0.420E-06
   9.895  0.592E-06  0.592E-06
   9.910  0.817E-06  0.817E-06
   9.925  0.110E-05  0.110E-05
   9.940  0.146E-05  0.146E-05
   9.955  0.190E-05  0.190E-05
   9.970  0.243E-05  0.243E-05
   9.985  0.304E-05  0.304E-05
  10.000  0.374E-05  0.374E-05
  10.015  0.453E-05  0.453E-05
  10.030  0.540E-05  0.540E-05
  10.045  0.635E-05  0.635E-05
  10.060  0.736E-05  0.736E-05
  10.075  0.843E-05  0.843E-05
  10.090  0.956E-05  0.956E-05
  10.105  0.107E-04  0.107E-04
  10.120  0.119E-04  0.119E-04
  10.135  0.132E-04  0.132E-04
  10.150  0.144E-04  0.144E-04
  10.165  0.157E-04  0.157E-04
  10.180  0.170E-04  0.170E-04
  10.195  0.183E-04  0.183E-04
  10.210  0.195E-04  0.195E-04
  10.225  0.207E-04  0.207E-04
  10.240  0.219E-04  0.219E-04
  10.255  0.231E-04  0.231E-04
  10.270  0.241E-04  0.241E-04
  10.285  0.251E-04  0.251E-04
  10.300  0.260E-04  0.260E-04
  10.315  0.268E-04  0.268E-04
  10.330  0.275E-04  0.275E-04
  10.345  0.282E-04  0.282E-04
  10.360  0.288E-04  0.288E-04
  10.375  0.294E-04  0.294E-04
  10.390  0.299E-04  0.299E-04
  10.405  0.305E-04  0.305E-04
  10.420  0.311E-04  0.311E-04
  10.435  0.318E-04  0.318E-04
  10.450  0.326E-04  0.326E-04
  10.465  0.336E-04  0.336E-04
  10.480  0.347E-04  0.347E-04
  10.495  0.362E-04  0.362E-04
  10.510  0.379E-04  0.379E-04
  10.525  0.400E-04  0.400E-04
  10.540  0.425E-04  0.425E-04
  10.555  0.455E-04  0.455E-04
  10.570  0.490E-04  0.490E-04
  10.585  0.531E-04  0.531E-04
  10.600  0.578E-04  0.578E-04
  10.615  0.630E-04  0.630E-04
  10.630  0.688E-04  0.688E-04
  10.645  0.752E-04  0.752E-04
  10.660  0.820E-04  0.820E-04
  10.675  0.893E-04  0.893E-04
  10.690  0.967E-04  0.967E-04
  10.705  0.104E-03  0.104E-03
  10.720  0.112E-03  0.112E-03
  10.735  0.119E-03  0.119E-03
  10.750  0.126E-03  0.126E-03
  10.765  0.133E-03  0.133E-03
  10.780  0.138E-03  0.138E-03
  10.795  0.143E-03  0.143E-03
  10.810  0.148E-03  0.148E-03
  10.825  0.152E-03  0.152E-03
  10.840  0.156E-03  0.156E-03
  10.855  0.160E-03  0.160E-03
  10.870  0.164E-03  0.164E-03
  10.885  0.170E-03  0.170E-03
  10.900  0.176E-03  0.176E-03
  10.915  0.185E-03  0.185E-03
  10.930  0.196E-03  0.196E-03
  10.945  0.210E-03  0.210E-03
  10.960  0.227E-03  0.227E-03
  10.975  0.248E-03  0.248E-03
  10.990  0.273E-03  0.273E-03
  11.005  0.303E-03  0.303E-03
  11.020  0.336E-03  0.336E-03
  11.035  0.375E-03  0.375E-03
  11.050  0.417E-03  0.417E-03
  11.065  0.463E-03  0.463E-03
  11.080  0.512E-03  0.512E-03
  11.095  0.564E-03  0.564E-03
  11.110  0.619E-03  0.619E-03
  11.125  0.674E-03  0.674E-03
  11.140  0.730E-03  0.730E-03
  11.155  0.786E-03  0.786E-03
  11.170  0.839E-03  0.839E-03
  11.185  0.889E-03  0.889E-03
  11.200  0.935E-03  0.935E-03
  11.215  0.973E-03  0.973E-03
  11.230  0.100E-02  0.100E-02
  11.245  0.102E-02  0.102E-02
  11.260  0.103E-02  0.103E-02
  11.275  0.103E-02  0.103E-02
  11.290  0.101E-02  0.101E-02
  11.305  0.985E-03  0.985E-03
  11.320  0.946E-03  0.946E-03
  11.335  0.898E-03  0.898E-03
  11.350  0.843E-03  0.843E-03
  11.365  0.784E-03  0.784E-03
  11.380  0.724E-03  0.724E-03
  11.395  0.664E-03  0.664E-03
  11.410  0.607E-03  0.607E-03
  11.425  0.555E-03  0.555E-03
  11.440  0.508E-03  0.508E-03
  11.455  0.467E-03  0.467E-03
  11.470  0.432E-03  0.432E-03
  11.485  0.403E-03  0.403E-03
  11.500  0.378E-03  0.378E-03
  11.515  0.358E-03  0.358E-03
  11.530  0.341E-03  0.341E-03
  11.545  0.327E-03  0.327E-03
  11.560  0.316E-03  0.316E-03
  11.575  0.307E-03  0.307E-03
  11.590  0.303E-03  0.303E-03
  11.605  0.303E-03  0.303E-03
  11.620  0.309E-03  0.309E-03
  11.635  0.321E-03  0.321E-03
  11.650  0.341E-03  0.341E-03
  11.665  0.369E-03  0.369E-03
  11.680  0.408E-03  0.408E-03
  11.695  0.455E-03  0.455E-03
  11.710  0.512E-03  0.512E-03
  11.725  0.577E-03  0.577E-03
  11.740  0.649E-03  0.649E-03
  11.755  0.725E-03  0.725E-03
  11.770  0.802E-03  0.802E-03
  11.785  0.878E-03  0.878E-03
  11.800  0.951E-03  0.951E-03
  11.815  0.102E-02  0.102E-02
  11.830  0.108E-02  0.108E-02
  11.845  0.113E-02  0.113E-02
  11.860  0.117E-02  0.117E-02
  11.875  0.120E-02  0.120E-02
  11.890  0.123E-02  0.123E-02
  11.905  0.124E-02  0.124E-02
  11.920  0.126E-02  0.126E-02
  11.935  0.126E-02  0.126E-02
  11.950  0.127E-02  0.127E-02
  11.965  0.127E-02  0.127E-02
  11.980  0.126E-02  0.126E-02
  11.995  0.126E-02  0.126E-02
  12.010  0.125E-02  0.125E-02
  12.025  0.124E-02  0.124E-02
  12.040  0.122E-02  0.122E-02
  12.055  0.121E-02  0.121E-02
  12.070  0.119E-02  0.119E-02
  12.085  0.118E-02  0.118E-02
  12.100  0.116E-02  0.116E-02
  12.115  0.115E-02  0.115E-02
  12.130  0.115E-02  0.115E-02
  12.145  0.115E-02  0.115E-02
  12.160  0.116E-02  0.116E-02
  12.175  0.117E-02  0.117E-02
  12.190  0.120E-02  0.120E-02
  12.205  0.123E-02  0.123E-02
  12.220  0.127E-02  0.127E-02
  12.235  0.132E-02  0.132E-02
  12.250  0.137E-02  0.137E-02
  12.265  0.143E-02  0.143E-02
  12.280  0.150E-02  0.150E-02
  12.295  0.158E-02  0.158E-02
  12.310  0.166E-02  0.166E-02
  12.325  0.174E-02  0.174E-02
  12.340  0.183E-02  0.183E-02
  12.355  0.192E-02  0.192E-02
  12.370  0.201E-02  0.201E-02
  12.385  0.209E-02  0.209E-02
  12.400  0.216E-02  0.216E-02
  12.415  0.223E-02  0.223E-02
  12.430  0.228E-02  0.228E-02
  12.445  0.232E-02  0.232E-02
  12.460  0.235E-02  0.235E-02
  12.475  0.238E-02  0.238E-02
  12.490  0.240E-02  0.240E-02
  12.505  0.241E-02  0.241E-02
  12.520  0.243E-02  0.243E-02
  12.535  0.246E-02  0.246E-02
  12.550  0.250E-02  0.250E-02
  12.565  0.255E-02  0.255E-02
  12.580  0.262E-02  0.262E-02
  12.595  0.271E-02  0.271E-02
  12.610  0.281E-02  0.281E-02
  12.625  0.291E-02  0.291E-02
  12.640  0.302E-02  0.302E-02
  12.655  0.313E-02  0.313E-02
  12.670  0.323E-02  0.323E-02
  12.685  0.331E-02  0.331E-02
  12.700  0.337E-02  0.337E-02
  12.715  0.341E-02  0.341E-02
  12.730  0.343E-02  0.343E-02
  12.745  0.342E-02  0.342E-02
  12.760  0.339E-02  0.339E-02
  12.775  0.334E-02  0.334E-02
  12.790  0.328E-02  0.328E-02
  12.805  0.322E-02  0.322E-02
  12.820  0.314E-02  0.314E-02
  12.835  0.307E-02  0.307E-02
  12.850  0.300E-02  0.300E-02
  12.865  0.294E-02  0.294E-02
  12.880  0.287E-02  0.287E-02
  12.895  0.281E-02  0.281E-02
  12.910  0.275E-02  0.275E-02
  12.925  0.268E-02  0.268E-02
  12.940  0.261E-02  0.261E-02
  12.955  0.253E-02  0.253E-02
  12.970  0.245E-02  0.245E-02
  12.985  0.235E-02  0.235E-02
  13.000  0.226E-02  0.226E-02
  13.015  0.216E-02  0.216E-02
  13.030  0.207E-02  0.207E-02
  13.045  0.198E-02  0.198E-02
  13.060  0.190E-02  0.190E-02
  13.075  0.183E-02  0.183E-02
  13.090  0.177E-02  0.177E-02
  13.105  0.173E-02  0.173E-02
  13.120  0.171E-02  0.171E-02
  13.135  0.170E-02  0.170E-02
  13.150  0.171E-02  0.171E-02
  13.165  0.172E-02  0.172E-02
  13.180  0.175E-02  0.175E-02
  13.195  0.179E-02  0.179E-02
  13.210  0.182E-02  0.182E-02
  13.225  0.186E-02  0.186E-02
  13.240  0.190E-02  0.190E-02
  13.255  0.195E-02  0.195E-02
  13.270  0.198E-02  0.198E-02
  13.285  0.202E-02  0.202E-02
  13.300  0.207E-02  0.207E-02
  13.315  0.211E-02  0.211E-02
  13.330  0.216E-02  0.216E-02
  13.345  0.221E-02  0.221E-02
  13.360  0.228E-02  0.228E-02
  13.375  0.236E-02  0.236E-02
  13.390  0.245E-02  0.245E-02
  13.405  0.256E-02  0.256E-02
  13.420  0.268E-02  0.268E-02
  13.435  0.281E-02  0.281E-02
  13.450  0.295E-02  0.295E-02
  13.465  0.308E-02  0.308E-02
  13.480  0.322E-02  0.322E-02
  13.495  0.334E-02  0.334E-02
  13.510  0.345E-02  0.345E-02
  13.525  0.354E-02  0.354E-02
  13.540  0.359E-02  0.359E-02
  13.555  0.362E-02  0.362E-02
  13.570  0.361E-02  0.361E-02
  13.585  0.357E-02  0.357E-02
  13.600  0.351E-02  0.351E-02
  13.615  0.343E-02  0.343E-02
  13.630  0.333E-02  0.333E-02
  13.645  0.323E-02  0.323E-02
  13.660  0.314E-02  0.314E-02
  13.675  0.305E-02  0.305E-02
  13.690  0.298E-02  0.298E-02
  13.705  0.292E-02  0.292E-02
  13.720  0.288E-02  0.288E-02
  13.735  0.286E-02  0.286E-02
  13.750  0.285E-02  0.285E-02
  13.765  0.286E-02  0.286E-02
  13.780  0.286E-02  0.286E-02
  13.795  0.287E-02  0.287E-02
  13.810  0.287E-02  0.287E-02
  13.825  0.285E-02  0.285E-02
  13.840  0.282E-02  0.282E-02
  13.855  0.277E-02  0.277E-02
  13.870  0.270E-02  0.270E-02
  13.885  0.260E-02  0.260E-02
  13.900  0.248E-02  0.248E-02
  13.915  0.235E-02  0.235E-02
  13.930  0.220E-02  0.220E-02
  13.945  0.204E-02  0.204E-02
  13.960  0.188E-02  0.188E-02
  13.975  0.172E-02  0.172E-02
  13.990  0.156E-02  0.156E-02
  14.005  0.142E-02  0.142E-02
  14.020  0.129E-02  0.129E-02
  14.035  0.117E-02  0.117E-02
  14.050  0.108E-02  0.108E-02
  14.065  0.102E-02  0.102E-02
  14.080  0.972E-03  0.972E-03
  14.095  0.951E-03  0.951E-03
  14.110  0.953E-03  0.953E-03
  14.125  0.977E-03  0.977E-03
  14.140  0.102E-02  0.102E-02
  14.155  0.108E-02  0.108E-02
  14.170  0.116E-02  0.116E-02
  14.185  0.125E-02  0.125E-02
  14.200  0.136E-02  0.136E-02
  14.215  0.147E-02  0.147E-02
  14.230  0.160E-02  0.160E-02
  14.245  0.172E-02  0.172E-02
  14.260  0.186E-02  0.186E-02
  14.275  0.199E-02  0.199E-02
  14.290  0.212E-02  0.212E-02
  14.305  0.225E-02  0.225E-02
  14.320  0.237E-02  0.237E-02
  14.335  0.249E-02  0.249E-02
  14.350  0.259E-02  0.259E-02
  14.365  0.267E-02  0.267E-02
  14.380  0.274E-02  0.274E-02
  14.395  0.278E-02  0.278E-02
  14.410  0.279E-02  0.279E-02
  14.425  0.278E-02  0.278E-02
  14.440  0.274E-02  0.274E-02
  14.455  0.268E-02  0.268E-02
  14.470  0.259E-02  0.259E-02
  14.485  0.247E-02  0.247E-02
  14.500  0.235E-02  0.235E-02
  14.515  0.221E-02  0.221E-02
  14.530  0.206E-02  0.206E-02
  14.545  0.191E-02  0.191E-02
  14.560  0.177E-02  0.177E-02
  14.575  0.163E-02  0.163E-02
  14.590  0.151E-02  0.151E-02
  14.605  0.140E-02  0.140E-02
  14.620  0.131E-02  0.131E-02
  14.635  0.124E-02  0.124E-02
  14.650  0.118E-02  0.118E-02
  14.665  0.115E-02  0.115E-02
  14.680  0.113E-02  0.113E-02
  14.695  0.113E-02  0.113E-02
  14.710  0.115E-02  0.115E-02
  14.725  0.117E-02  0.117E-02
  14.740  0.120E-02  0.120E-02
  14.755  0.124E-02  0.124E-02
  14.770  0.127E-02  0.127E-02
  14.785  0.131E-02  0.131E-02
  14.800  0.133E-02  0.133E-02
  14.815  0.135E-02  0.135E-02
  14.830  0.135E-02  0.135E-02
  14.845  0.134E-02  0.134E-02
  14.860  0.132E-02  0.132E-02
  14.875  0.129E-02  0.129E-02
  14.890  0.124E-02  0.124E-02
  14.905  0.119E-02  0.119E-02
  14.920  0.114E-02  0.114E-02
  14.935  0.108E-02  0.108E-02
  14.950  0.102E-02  0.102E-02
  14.965  0.967E-03  0.967E-03
  14.980  0.914E-03  0.914E-03
  14.995  0.866E-03  0.866E-03
  15.010  0.823E-03  0.823E-03
  15.025  0.786E-03  0.786E-03
  15.040  0.755E-03  0.755E-03
  15.055  0.729E-03  0.729E-03
  15.070  0.709E-03  0.709E-03
  15.085  0.695E-03  0.695E-03
  15.100  0.684E-03  0.684E-03
  15.115  0.678E-03  0.678E-03
  15.130  0.675E-03  0.675E-03
  15.145  0.674E-03  0.674E-03
  15.160  0.675E-03  0.675E-03
  15.175  0.678E-03  0.678E-03
  15.190  0.682E-03  0.682E-03
  15.205  0.687E-03  0.687E-03
  15.220  0.693E-03  0.693E-03
  15.235  0.702E-03  0.702E-03
  15.250  0.714E-03  0.714E-03
  15.265  0.730E-03  0.730E-03
  15.280  0.750E-03  0.750E-03
  15.295  0.775E-03  0.775E-03
  15.310  0.806E-03  0.806E-03
  15.325  0.841E-03  0.841E-03
  15.340  0.880E-03  0.880E-03
  15.355  0.921E-03  0.921E-03
  15.370  0.964E-03  0.964E-03
  15.385  0.101E-02  0.101E-02
  15.400  0.105E-02  0.105E-02
  15.415  0.108E-02  0.108E-02
  15.430  0.111E-02  0.111E-02
  15.445  0.114E-02  0.114E-02
  15.460  0.115E-02  0.115E-02
  15.475  0.117E-02  0.117E-02
  15.490  0.117E-02  0.117E-02
  15.505  0.118E-02  0.118E-02
  15.520  0.118E-02  0.118E-02
  15.535  0.118E-02  0.118E-02
  15.550  0.118E-02  0.118E-02
  15.565  0.119E-02  0.119E-02
  15.580  0.120E-02  0.120E-02
  15.595  0.121E-02  0.121E-02
  15.610  0.123E-02  0.123E-02
  15.625  0.124E-02  0.124E-02
  15.640  0.126E-02  0.126E-02
  15.655  0.128E-02  0.128E-02
  15.670  0.130E-02  0.130E-02
  15.685  0.132E-02  0.132E-02
  15.700  0.134E-02  0.134E-02
  15.715  0.136E-02  0.136E-02
  15.730  0.137E-02  0.137E-02
  15.745  0.139E-02  0.139E-02
  15.760  0.140E-02  0.140E-02
  15.775  0.142E-02  0.142E-02
  15.790  0.143E-02  0.143E-02
  15.805  0.145E-02  0.145E-02
  15.820  0.147E-02  0.147E-02
  15.835  0.149E-02  0.149E-02
  15.850  0.151E-02  0.151E-02
  15.865  0.153E-02  0.153E-02
  15.880  0.156E-02  0.156E-02
  15.895  0.158E-02  0.158E-02
  15.910  0.160E-02  0.160E-02
  15.925  0.163E-02  0.163E-02
  15.940  0.165E-02  0.165E-02
  15.955  0.167E-02  0.167E-02
  15.970  0.169E-02  0.169E-02
  15.985  0.170E-02  0.170E-02
  16.000  0.171E-02  0.171E-02
  16.015  0.172E-02  0.172E-02
  16.030  0.172E-02  0.172E-02
  16.045  0.172E-02  0.172E-02
  16.060  0.172E-02  0.172E-02
  16.075  0.172E-02  0.172E-02
  16.090  0.173E-02  0.173E-02
  16.105  0.174E-02  0.174E-02
  16.120  0.175E-02  0.175E-02
  16.135  0.177E-02  0.177E-02
  16.150  0.179E-02  0.179E-02
  16.165  0.183E-02  0.183E-02
  16.180  0.186E-02  0.186E-02
  16.195  0.191E-02  0.191E-02
  16.210  0.195E-02  0.195E-02
  16.225  0.199E-02  0.199E-02
  16.240  0.204E-02  0.204E-02
  16.255  0.208E-02  0.208E-02
  16.270  0.211E-02  0.211E-02
  16.285  0.215E-02  0.215E-02
  16.300  0.217E-02  0.217E-02
  16.315  0.219E-02  0.219E-02
  16.330  0.221E-02  0.221E-02
  16.345  0.222E-02  0.222E-02
  16.360  0.224E-02  0.224E-02
  16.375  0.225E-02  0.225E-02
  16.390  0.226E-02  0.226E-02
  16.405  0.227E-02  0.227E-02
  16.420  0.228E-02  0.228E-02
  16.435  0.228E-02  0.228E-02
  16.450  0.229E-02  0.229E-02
  16.465  0.230E-02  0.230E-02
  16.480  0.231E-02  0.231E-02
  16.495  0.233E-02  0.233E-02
  16.510  0.234E-02  0.234E-02
  16.525  0.236E-02  0.236E-02
  16.540  0.239E-02  0.239E-02
  16.555  0.243E-02  0.243E-02
  16.570  0.247E-02  0.247E-02
  16.585  0.253E-02  0.253E-02
  16.600  0.260E-02  0.260E-02
  16.615  0.268E-02  0.268E-02
  16.630  0.277E-02  0.277E-02
  16.645  0.288E-02  0.288E-02
  16.660  0.299E-02  0.299E-02
  16.675  0.311E-02  0.311E-02
  16.690  0.323E-02  0.323E-02
  16.705  0.335E-02  0.335E-02
  16.720  0.347E-02  0.347E-02
  16.735  0.359E-02  0.359E-02
  16.750  0.369E-02  0.369E-02
  16.765  0.378E-02  0.378E-02
  16.780  0.385E-02  0.385E-02
  16.795  0.390E-02  0.390E-02
  16.810  0.393E-02  0.393E-02
  16.825  0.394E-02  0.394E-02
  16.840  0.394E-02  0.394E-02
  16.855  0.391E-02  0.391E-02
  16.870  0.388E-02  0.388E-02
  16.885  0.383E-02  0.383E-02
  16.900  0.378E-02  0.378E-02
  16.915  0.373E-02  0.373E-02
  16.930  0.368E-02  0.368E-02
  16.945  0.364E-02  0.364E-02
  16.960  0.360E-02  0.360E-02
  16.975  0.357E-02  0.357E-02
  16.990  0.356E-02  0.356E-02
  17.005  0.356E-02  0.356E-02
  17.020  0.358E-02  0.358E-02
  17.035  0.363E-02  0.363E-02
  17.050  0.370E-02  0.370E-02
  17.065  0.380E-02  0.380E-02
  17.080  0.394E-02  0.394E-02
  17.095  0.412E-02  0.412E-02
  17.110  0.435E-02  0.435E-02
  17.125  0.462E-02  0.462E-02
  17.140  0.494E-02  0.494E-02
  17.155  0.530E-02  0.530E-02
  17.170  0.569E-02  0.569E-02
  17.185  0.610E-02  0.610E-02
  17.200  0.652E-02  0.652E-02
  17.215  0.691E-02  0.691E-02
  17.230  0.727E-02  0.727E-02
  17.245  0.758E-02  0.758E-02
  17.260  0.782E-02  0.782E-02
  17.275  0.798E-02  0.798E-02
  17.290  0.804E-02  0.804E-02
  17.305  0.802E-02  0.802E-02
  17.320  0.790E-02  0.790E-02
  17.335  0.770E-02  0.770E-02
  17.350  0.741E-02  0.741E-02
  17.365  0.707E-02  0.707E-02
  17.380  0.667E-02  0.667E-02
  17.395  0.624E-02  0.624E-02
  17.410  0.578E-02  0.578E-02
  17.425  0.532E-02  0.532E-02
  17.440  0.486E-02  0.486E-02
  17.455  0.441E-02  0.441E-02
  17.470  0.399E-02  0.399E-02
  17.485  0.359E-02  0.359E-02
  17.500  0.323E-02  0.323E-02
  17.515  0.290E-02  0.290E-02
  17.530  0.262E-02  0.262E-02
  17.545  0.237E-02  0.237E-02
  17.560  0.216E-02  0.216E-02
  17.575  0.198E-02  0.198E-02
  17.590  0.183E-02  0.183E-02
  17.605  0.170E-02  0.170E-02
  17.620  0.160E-02  0.160E-02
  17.635  0.151E-02  0.151E-02
  17.650  0.143E-02  0.143E-02
  17.665  0.137E-02  0.137E-02
  17.680  0.131E-02  0.131E-02
  17.695  0.125E-02  0.125E-02
  17.710  0.120E-02  0.120E-02
  17.725  0.114E-02  0.114E-02
  17.740  0.110E-02  0.110E-02
  17.755  0.105E-02  0.105E-02
  17.770  0.100E-02  0.100E-02
  17.785  0.957E-03  0.957E-03
  17.800  0.917E-03  0.917E-03
  17.815  0.880E-03  0.880E-03
  17.830  0.847E-03  0.847E-03
  17.845  0.818E-03  0.818E-03
  17.860  0.794E-03  0.794E-03
  17.875  0.774E-03  0.774E-03
  17.890  0.758E-03  0.758E-03
  17.905  0.747E-03  0.747E-03
  17.920  0.740E-03  0.740E-03
  17.935  0.737E-03  0.737E-03
  17.950  0.737E-03  0.737E-03
  17.965  0.740E-03  0.740E-03
  17.980  0.746E-03  0.746E-03
  17.995  0.753E-03  0.753E-03
  18.010  0.761E-03  0.761E-03
  18.025  0.769E-03  0.769E-03
  18.040  0.777E-03  0.777E-03
  18.055  0.784E-03  0.784E-03
  18.070  0.788E-03  0.788E-03
  18.085  0.791E-03  0.791E-03
  18.100  0.791E-03  0.791E-03
  18.115  0.789E-03  0.789E-03
  18.130  0.784E-03  0.784E-03
  18.145  0.778E-03  0.778E-03
  18.160  0.770E-03  0.770E-03
  18.175  0.760E-03  0.760E-03
  18.190  0.750E-03  0.750E-03
  18.205  0.739E-03  0.739E-03
  18.220  0.727E-03  0.727E-03
  18.235  0.716E-03  0.716E-03
  18.250  0.704E-03  0.704E-03
  18.265  0.693E-03  0.693E-03
  18.280  0.683E-03  0.683E-03
  18.295  0.673E-03  0.673E-03
  18.310  0.665E-03  0.665E-03
  18.325  0.658E-03  0.658E-03
  18.340  0.653E-03  0.653E-03
  18.355  0.649E-03  0.649E-03
  18.370  0.648E-03  0.648E-03
  18.385  0.648E-03  0.648E-03
  18.400  0.650E-03  0.650E-03
  18.415  0.654E-03  0.654E-03
  18.430  0.660E-03  0.660E-03
  18.445  0.667E-03  0.667E-03
  18.460  0.675E-03  0.675E-03
  18.475  0.683E-03  0.683E-03
  18.490  0.693E-03  0.693E-03
  18.505  0.702E-03  0.702E-03
  18.520  0.712E-03  0.712E-03
  18.535  0.721E-03  0.721E-03
  18.550  0.731E-03  0.731E-03
  18.565  0.742E-03  0.742E-03
  18.580  0.755E-03  0.755E-03
  18.595  0.769E-03  0.769E-03
  18.610  0.788E-03  0.788E-03
  18.625  0.812E-03  0.812E-03
  18.640  0.844E-03  0.844E-03
  18.655  0.888E-03  0.888E-03
  18.670  0.947E-03  0.947E-03
  18.685  0.102E-02  0.102E-02
  18.700  0.112E-02  0.112E-02
  18.715  0.124E-02  0.124E-02
  18.730  0.140E-02  0.140E-02
  18.745  0.158E-02  0.158E-02
  18.760  0.179E-02  0.179E-02
  18.775  0.203E-02  0.203E-02
  18.790  0.229E-02  0.229E-02
  18.805  0.258E-02  0.258E-02
  18.820  0.289E-02  0.289E-02
  18.835  0.322E-02  0.322E-02
  18.850  0.355E-02  0.355E-02
  18.865  0.387E-02  0.387E-02
  18.880  0.420E-02  0.420E-02
  18.895  0.450E-02  0.450E-02
  18.910  0.478E-02  0.478E-02
  18.925  0.503E-02  0.503E-02
  18.940  0.525E-02  0.525E-02
  18.955  0.541E-02  0.541E-02
  18.970  0.553E-02  0.553E-02
  18.985  0.559E-02  0.559E-02
  19.000  0.559E-02  0.559E-02
  19.015  0.554E-02  0.554E-02
  19.030  0.543E-02  0.543E-02
  19.045  0.528E-02  0.528E-02
  19.060  0.508E-02  0.508E-02
  19.075  0.486E-02  0.486E-02
  19.090  0.461E-02  0.461E-02
  19.105  0.434E-02  0.434E-02
  19.120  0.407E-02  0.407E-02
  19.135  0.381E-02  0.381E-02
  19.150  0.355E-02  0.355E-02
  19.165  0.331E-02  0.331E-02
  19.180  0.309E-02  0.309E-02
  19.195  0.289E-02  0.289E-02
  19.210  0.271E-02  0.271E-02
  19.225  0.255E-02  0.255E-02
  19.240  0.241E-02  0.241E-02
  19.255  0.230E-02  0.230E-02
  19.270  0.219E-02  0.219E-02
  19.285  0.211E-02  0.211E-02
  19.300  0.203E-02  0.203E-02
  19.315  0.197E-02  0.197E-02
  19.330  0.191E-02  0.191E-02
  19.345  0.186E-02  0.186E-02
  19.360  0.182E-02  0.182E-02
  19.375  0.178E-02  0.178E-02
  19.390  0.175E-02  0.175E-02
  19.405  0.172E-02  0.172E-02
  19.420  0.170E-02  0.170E-02
  19.435  0.168E-02  0.168E-02
  19.450  0.166E-02  0.166E-02
  19.465  0.165E-02  0.165E-02
  19.480  0.164E-02  0.164E-02
  19.495  0.162E-02  0.162E-02
  19.510  0.161E-02  0.161E-02
  19.525  0.160E-02  0.160E-02
  19.540  0.158E-02  0.158E-02
  19.555  0.156E-02  0.156E-02
  19.570  0.154E-02  0.154E-02
  19.585  0.151E-02  0.151E-02
  19.600  0.148E-02  0.148E-02
  19.615  0.144E-02  0.144E-02
  19.630  0.140E-02  0.140E-02
  19.645  0.136E-02  0.136E-02
  19.660  0.131E-02  0.131E-02
  19.675  0.127E-02  0.127E-02
  19.690  0.122E-02  0.122E-02
  19.705  0.117E-02  0.117E-02
  19.720  0.112E-02  0.112E-02
  19.735  0.107E-02  0.107E-02
  19.750  0.102E-02  0.102E-02
  19.765  0.976E-03  0.976E-03
  19.780  0.931E-03  0.931E-03
  19.795  0.888E-03  0.888E-03
  19.810  0.847E-03  0.847E-03
  19.825  0.809E-03  0.809E-03
  19.840  0.774E-03  0.774E-03
  19.855  0.742E-03  0.742E-03
  19.870  0.713E-03  0.713E-03
  19.885  0.686E-03  0.686E-03
  19.900  0.663E-03  0.663E-03
  19.915  0.643E-03  0.643E-03
  19.930  0.625E-03  0.625E-03
  19.945  0.609E-03  0.609E-03
  19.960  0.596E-03  0.596E-03
  19.975  0.584E-03  0.584E-03
  19.990  0.573E-03  0.573E-03
  20.005  0.563E-03  0.563E-03
  20.020  0.554E-03  0.554E-03
  20.035  0.545E-03  0.545E-03
  20.050  0.537E-03  0.537E-03
  20.065  0.528E-03  0.528E-03
  20.080  0.520E-03  0.520E-03
  20.095  0.512E-03  0.512E-03
  20.110  0.504E-03  0.504E-03
  20.125  0.496E-03  0.496E-03
  20.140  0.488E-03  0.488E-03
  20.155  0.482E-03  0.482E-03
  20.170  0.475E-03  0.475E-03
  20.185  0.470E-03  0.470E-03
  20.200  0.466E-03  0.466E-03
  20.215  0.463E-03  0.463E-03
  20.230  0.461E-03  0.461E-03
  20.245  0.460E-03  0.460E-03
  20.260  0.459E-03  0.459E-03
  20.275  0.459E-03  0.459E-03
  20.290  0.459E-03  0.459E-03
  20.305  0.458E-03  0.458E-03
  20.320  0.455E-03  0.455E-03
  20.335  0.451E-03  0.451E-03
  20.350  0.445E-03  0.445E-03
  20.365  0.436E-03  0.436E-03
  20.380  0.425E-03  0.425E-03
  20.395  0.411E-03  0.411E-03
  20.410  0.395E-03  0.395E-03
  20.425  0.378E-03  0.378E-03
  20.440  0.361E-03  0.361E-03
  20.455  0.344E-03  0.344E-03
  20.470  0.330E-03  0.330E-03
  20.485  0.318E-03  0.318E-03
  20.500  0.309E-03  0.309E-03
  20.515  0.305E-03  0.305E-03
  20.530  0.305E-03  0.305E-03
  20.545  0.309E-03  0.309E-03
  20.560  0.318E-03  0.318E-03
  20.575  0.330E-03  0.330E-03
  20.590  0.345E-03  0.345E-03
  20.605  0.361E-03  0.361E-03
  20.620  0.377E-03  0.377E-03
  20.635  0.393E-03  0.393E-03
  20.650  0.408E-03  0.408E-03
  20.665  0.420E-03  0.420E-03
  20.680  0.429E-03  0.429E-03
  20.695  0.435E-03  0.435E-03
  20.710  0.439E-03  0.439E-03
  20.725  0.440E-03  0.440E-03
  20.740  0.439E-03  0.439E-03
  20.755  0.438E-03  0.438E-03
  20.770  0.436E-03  0.436E-03
  20.785  0.436E-03  0.436E-03
  20.800  0.436E-03  0.436E-03
  20.815  0.438E-03  0.438E-03
  20.830  0.443E-03  0.443E-03
  20.845  0.450E-03  0.450E-03
  20.860  0.458E-03  0.458E-03
  20.875  0.469E-03  0.469E-03
  20.890  0.482E-03  0.482E-03
  20.905  0.495E-03  0.495E-03
  20.920  0.509E-03  0.509E-03
  20.935  0.523E-03  0.523E-03
  20.950  0.537E-03  0.537E-03
  20.965  0.550E-03  0.550E-03
  20.980  0.562E-03  0.562E-03
  20.995  0.574E-03  0.574E-03
  21.010  0.584E-03  0.584E-03
  21.025  0.593E-03  0.593E-03
  21.040  0.602E-03  0.602E-03
  21.055  0.610E-03  0.610E-03
  21.070  0.618E-03  0.618E-03
  21.085  0.626E-03  0.626E-03
  21.100  0.635E-03  0.635E-03
  21.115  0.643E-03  0.643E-03
  21.130  0.653E-03  0.653E-03
  21.145  0.664E-03  0.664E-03
  21.160  0.676E-03  0.676E-03
  21.175  0.690E-03  0.690E-03
  21.190  0.706E-03  0.706E-03
  21.205  0.724E-03  0.724E-03
  21.220  0.744E-03  0.744E-03
  21.235  0.765E-03  0.765E-03
  21.250  0.787E-03  0.787E-03
  21.265  0.809E-03  0.809E-03
  21.280  0.832E-03  0.832E-03
  21.295  0.855E-03  0.855E-03
  21.310  0.878E-03  0.878E-03
  21.325  0.900E-03  0.900E-03
  21.340  0.923E-03  0.923E-03
  21.355  0.947E-03  0.947E-03
  21.370  0.972E-03  0.972E-03
  21.385  0.999E-03  0.999E-03
  21.400  0.103E-02  0.103E-02
  21.415  0.106E-02  0.106E-02
  21.430  0.110E-02  0.110E-02
  21.445  0.114E-02  0.114E-02
  21.460  0.118E-02  0.118E-02
  21.475  0.122E-02  0.122E-02
  21.490  0.126E-02  0.126E-02
  21.505  0.130E-02  0.130E-02
  21.520  0.133E-02  0.133E-02
  21.535  0.136E-02  0.136E-02
  21.550  0.139E-02  0.139E-02
  21.565  0.140E-02  0.140E-02
  21.580  0.142E-02  0.142E-02
  21.595  0.142E-02  0.142E-02
  21.610  0.142E-02  0.142E-02
  21.625  0.142E-02  0.142E-02
  21.640  0.141E-02  0.141E-02
  21.655  0.140E-02  0.140E-02
  21.670  0.139E-02  0.139E-02
  21.685  0.138E-02  0.138E-02
  21.700  0.136E-02  0.136E-02
  21.715  0.135E-02  0.135E-02
  21.730  0.133E-02  0.133E-02
  21.745  0.131E-02  0.131E-02
  21.760  0.130E-02  0.130E-02
  21.775  0.127E-02  0.127E-02
  21.790  0.125E-02  0.125E-02
  21.805  0.123E-02  0.123E-02
  21.820  0.121E-02  0.121E-02
  21.835  0.118E-02  0.118E-02
  21.850  0.116E-02  0.116E-02
  21.865  0.113E-02  0.113E-02
  21.880  0.112E-02  0.112E-02
  21.895  0.110E-02  0.110E-02
  21.910  0.109E-02  0.109E-02
  21.925  0.109E-02  0.109E-02
  21.940  0.109E-02  0.109E-02
  21.955  0.111E-02  0.111E-02
  21.970  0.112E-02  0.112E-02
  21.985  0.115E-02  0.115E-02
  22.000  0.118E-02  0.118E-02
  22.015  0.121E-02  0.121E-02
  22.030  0.124E-02  0.124E-02
  22.045  0.127E-02  0.127E-02
  22.060  0.131E-02  0.131E-02
  22.075  0.134E-02  0.134E-02
  22.090  0.137E-02  0.137E-02
  22.105  0.140E-02  0.140E-02
  22.120  0.142E-02  0.142E-02
  22.135  0.145E-02  0.145E-02
  22.150  0.148E-02  0.148E-02
  22.165  0.151E-02  0.151E-02
  22.180  0.155E-02  0.155E-02
  22.195  0.158E-02  0.158E-02
  22.210  0.162E-02  0.162E-02
  22.225  0.165E-02  0.165E-02
  22.240  0.168E-02  0.168E-02
  22.255  0.170E-02  0.170E-02
  22.270  0.172E-02  0.172E-02
  22.285  0.172E-02  0.172E-02
  22.300  0.171E-02  0.171E-02
  22.315  0.169E-02  0.169E-02
  22.330  0.166E-02  0.166E-02
  22.345  0.162E-02  0.162E-02
  22.360  0.156E-02  0.156E-02
  22.375  0.151E-02  0.151E-02
  22.390  0.144E-02  0.144E-02
  22.405  0.138E-02  0.138E-02
  22.420  0.132E-02  0.132E-02
  22.435  0.126E-02  0.126E-02
  22.450  0.120E-02  0.120E-02
  22.465  0.116E-02  0.116E-02
  22.480  0.112E-02  0.112E-02
  22.495  0.109E-02  0.109E-02
  22.510  0.106E-02  0.106E-02
  22.525  0.104E-02  0.104E-02
  22.540  0.103E-02  0.103E-02
  22.555  0.103E-02  0.103E-02
  22.570  0.103E-02  0.103E-02
  22.585  0.103E-02  0.103E-02
  22.600  0.104E-02  0.104E-02
  22.615  0.104E-02  0.104E-02
  22.630  0.104E-02  0.104E-02
  22.645  0.104E-02  0.104E-02
  22.660  0.103E-02  0.103E-02
  22.675  0.102E-02  0.102E-02
  22.690  0.999E-03  0.999E-03
  22.705  0.972E-03  0.972E-03
  22.720  0.939E-03  0.939E-03
  22.735  0.900E-03  0.900E-03
  22.750  0.856E-03  0.856E-03
  22.765  0.809E-03  0.809E-03
  22.780  0.758E-03  0.758E-03
  22.795  0.706E-03  0.706E-03
  22.810  0.654E-03  0.654E-03
  22.825  0.602E-03  0.602E-03
  22.840  0.553E-03  0.553E-03
  22.855  0.506E-03  0.506E-03
  22.870  0.463E-03  0.463E-03
  22.885  0.424E-03  0.424E-03
  22.900  0.390E-03  0.390E-03
  22.915  0.360E-03  0.360E-03
  22.930  0.335E-03  0.335E-03
  22.945  0.315E-03  0.315E-03
  22.960  0.299E-03  0.299E-03
  22.975  0.287E-03  0.287E-03
  22.990  0.278E-03  0.278E-03
  23.005  0.272E-03  0.272E-03
  23.020  0.268E-03  0.268E-03
  23.035  0.265E-03  0.265E-03
  23.050  0.264E-03  0.264E-03
  23.065  0.263E-03  0.263E-03
  23.080  0.263E-03  0.263E-03
  23.095  0.263E-03  0.263E-03
  23.110  0.263E-03  0.263E-03
  23.125  0.262E-03  0.262E-03
  23.140  0.262E-03  0.262E-03
  23.155  0.261E-03  0.261E-03
  23.170  0.261E-03  0.261E-03
  23.185  0.260E-03  0.260E-03
  23.200  0.260E-03  0.260E-03
  23.215  0.259E-03  0.259E-03
  23.230  0.259E-03  0.259E-03
  23.245  0.258E-03  0.258E-03
  23.260  0.258E-03  0.258E-03
  23.275  0.258E-03  0.258E-03
  23.290  0.258E-03  0.258E-03
  23.305  0.257E-03  0.257E-03
  23.320  0.257E-03  0.257E-03
  23.335  0.258E-03  0.258E-03
  23.350  0.258E-03  0.258E-03
  23.365  0.259E-03  0.259E-03
  23.380  0.260E-03  0.260E-03
  23.395  0.261E-03  0.261E-03
  23.410  0.263E-03  0.263E-03
  23.425  0.265E-03  0.265E-03
  23.440  0.267E-03  0.267E-03
  23.455  0.270E-03  0.270E-03
  23.470  0.273E-03  0.273E-03
  23.485  0.275E-03  0.275E-03
  23.500  0.278E-03  0.278E-03
  23.515  0.280E-03  0.280E-03
  23.530  0.282E-03  0.282E-03
  23.545  0.284E-03  0.284E-03
  23.560  0.284E-03  0.284E-03
  23.575  0.284E-03  0.284E-03
  23.590  0.282E-03  0.282E-03
  23.605  0.279E-03  0.279E-03
  23.620  0.274E-03  0.274E-03
  23.635  0.268E-03  0.268E-03
  23.650  0.259E-03  0.259E-03
  23.665  0.250E-03  0.250E-03
  23.680  0.239E-03  0.239E-03
  23.695  0.227E-03  0.227E-03
  23.710  0.214E-03  0.214E-03
  23.725  0.201E-03  0.201E-03
  23.740  0.188E-03  0.188E-03
  23.755  0.175E-03  0.175E-03
  23.770  0.163E-03  0.163E-03
  23.785  0.152E-03  0.152E-03
  23.800  0.141E-03  0.141E-03
  23.815  0.132E-03  0.132E-03
  23.830  0.124E-03  0.124E-03
  23.845  0.117E-03  0.117E-03
  23.860  0.112E-03  0.112E-03
  23.875  0.107E-03  0.107E-03
  23.890  0.103E-03  0.103E-03
  23.905  0.999E-04  0.999E-04
  23.920  0.976E-04  0.976E-04
  23.935  0.962E-04  0.962E-04
  23.950  0.955E-04  0.955E-04
  23.965  0.954E-04  0.954E-04
  23.980  0.960E-04  0.960E-04
  23.995  0.972E-04  0.972E-04
  24.010  0.989E-04  0.989E-04
  24.025  0.101E-03  0.101E-03
  24.040  0.104E-03  0.104E-03
  24.055  0.106E-03  0.106E-03
  24.070  0.109E-03  0.109E-03
  24.085  0.112E-03  0.112E-03
  24.100  0.114E-03  0.114E-03
  24.115  0.117E-03  0.117E-03
  24.130  0.118E-03  0.118E-03
  24.145  0.120E-03  0.120E-03
  24.160  0.120E-03  0.120E-03
  24.175  0.120E-03  0.120E-03
  24.190  0.119E-03  0.119E-03
  24.205  0.117E-03  0.117E-03
  24.220  0.115E-03  0.115E-03
  24.235  0.112E-03  0.112E-03
  24.250  0.108E-03  0.108E-03
  24.265  0.104E-03  0.104E-03
  24.280  0.100E-03  0.100E-03
  24.295  0.961E-04  0.961E-04
  24.310  0.921E-04  0.921E-04
  24.325  0.883E-04  0.883E-04
  24.340  0.848E-04  0.848E-04
  24.355  0.818E-04  0.818E-04
  24.370  0.793E-04  0.793E-04
  24.385  0.773E-04  0.773E-04
  24.400  0.757E-04  0.757E-04
  24.415  0.744E-04  0.744E-04
  24.430  0.734E-04  0.734E-04
  24.445  0.726E-04  0.726E-04
  24.460  0.719E-04  0.719E-04
  24.475  0.712E-04  0.712E-04
  24.490  0.704E-04  0.704E-04
  24.505  0.695E-04  0.695E-04
  24.520  0.686E-04  0.686E-04
  24.535  0.677E-04  0.677E-04
  24.550  0.669E-04  0.669E-04
  24.565  0.662E-04  0.662E-04
  24.580  0.659E-04  0.659E-04
  24.595  0.661E-04  0.661E-04
  24.610  0.668E-04  0.668E-04
  24.625  0.682E-04  0.682E-04
  24.640  0.704E-04  0.704E-04
  24.655  0.732E-04  0.732E-04
  24.670  0.768E-04  0.768E-04
  24.685  0.809E-04  0.809E-04
  24.700  0.856E-04  0.856E-04
  24.715  0.906E-04  0.906E-04
  24.730  0.957E-04  0.957E-04
  24.745  0.101E-03  0.101E-03
  24.760  0.105E-03  0.105E-03
  24.775  0.109E-03  0.109E-03
  24.790  0.113E-03  0.113E-03
  24.805  0.115E-03  0.115E-03
  24.820  0.117E-03  0.117E-03
  24.835  0.118E-03  0.118E-03
  24.850  0.117E-03  0.117E-03
  24.865  0.116E-03  0.116E-03
  24.880  0.114E-03  0.114E-03
  24.895  0.111E-03  0.111E-03
  24.910  0.107E-03  0.107E-03
  24.925  0.103E-03  0.103E-03
  24.940  0.991E-04  0.991E-04
  24.955  0.944E-04  0.944E-04
  24.970  0.897E-04  0.897E-04
  24.985  0.848E-04  0.848E-04
  25.000  0.799E-04  0.799E-04
  25.015  0.750E-04  0.750E-04
  25.030  0.703E-04  0.703E-04
  25.045  0.658E-04  0.658E-04
  25.060  0.615E-04  0.615E-04
  25.075  0.575E-04  0.575E-04
  25.090  0.540E-04  0.540E-04
  25.105  0.508E-04  0.508E-04
  25.120  0.481E-04  0.481E-04
  25.135  0.459E-04  0.459E-04
  25.150  0.442E-04  0.442E-04
  25.165  0.429E-04  0.429E-04
  25.180  0.419E-04  0.419E-04
  25.195  0.413E-04  0.413E-04
  25.210  0.407E-04  0.407E-04
  25.225  0.402E-04  0.402E-04
  25.240  0.396E-04  0.396E-04
  25.255  0.388E-04  0.388E-04
  25.270  0.378E-04  0.378E-04
  25.285  0.364E-04  0.364E-04
  25.300  0.347E-04  0.347E-04
  25.315  0.326E-04  0.326E-04
  25.330  0.302E-04  0.302E-04
  25.345  0.276E-04  0.276E-04
  25.360  0.248E-04  0.248E-04
  25.375  0.219E-04  0.219E-04
  25.390  0.190E-04  0.190E-04
  25.405  0.162E-04  0.162E-04
  25.420  0.136E-04  0.136E-04
  25.435  0.112E-04  0.112E-04
  25.450  0.908E-05  0.908E-05
  25.465  0.721E-05  0.721E-05
  25.480  0.562E-05  0.562E-05
  25.495  0.430E-05  0.430E-05
  25.510  0.323E-05  0.323E-05
  25.525  0.238E-05  0.238E-05
  25.540  0.172E-05  0.172E-05
  25.555  0.122E-05  0.122E-05
  25.570  0.849E-06  0.849E-06
  25.585  0.580E-06  0.580E-06
  25.600  0.388E-06  0.388E-06
  25.615  0.255E-06  0.255E-06
  25.630  0.164E-06  0.164E-06
  25.645  0.104E-06  0.104E-06
  25.660  0.641E-07  0.641E-07
  25.675  0.389E-07  0.389E-07
  25.690  0.232E-07  0.232E-07
  25.705  0.135E-07  0.135E-07
  25.720  0.772E-08  0.772E-08
  25.735  0.432E-08  0.432E-08
  25.750  0.237E-08  0.237E-08
  25.765  0.127E-08  0.127E-08
  25.780  0.671E-09  0.671E-09
  25.795  0.346E-09  0.346E-09
  25.810  0.175E-09  0.175E-09
  25.825  0.864E-10  0.864E-10
  25.840  0.418E-10  0.418E-10
